# Wavelength  (nm), Transmission (%)
200.000000, 0.906726
201.000000, 0.777654
202.000000, 0.696104
203.000000, 0.570009
204.000000, 0.474512
205.000000, 0.444110
206.000000, 0.375701
207.000000, 0.293915
208.000000, 0.257270
209.000000, 0.220271
210.000000, 0.211631
211.000000, 0.181095
212.000000, 0.152346
213.000000, 0.133642
214.000000, 0.113513
215.000000, 0.109399
216.000000, 0.094604
217.000000, 0.080947
218.000000, 0.083180
219.000000, 0.077927
220.000000, 0.067682
221.000000, 0.067742
222.000000, 0.054825
223.000000, 0.054551
224.000000, 0.039886
225.000000, 0.051448
226.000000, 0.045467
227.000000, 0.039936
228.000000, 0.039135
229.000000, 0.038335
230.000000, 0.040000
231.000000, 0.040886
232.000000, 0.034173
233.000000, 0.033944
234.000000, 0.035062
235.000000, 0.031154
236.000000, 0.023782
237.000000, 0.029595
238.000000, 0.027361
239.000000, 0.025684
240.000000, 0.028148
241.000000, 0.032182
242.000000, 0.024120
243.000000, 0.027258
244.000000, 0.028154
245.000000, 0.025688
246.000000, 0.031065
247.000000, 0.025016
248.000000, 0.025800
249.000000, 0.024903
250.000000, 0.025909
251.000000, 0.023671
252.000000, 0.029262
253.000000, 0.024006
254.000000, 0.023223
255.000000, 0.026349
256.000000, 0.025120
257.000000, 0.022888
258.000000, 0.031027
259.000000, 0.026790
260.000000, 0.023891
261.000000, 0.023780
262.000000, 0.026899
263.000000, 0.025674
264.000000, 0.029576
265.000000, 0.027793
266.000000, 0.029353
267.000000, 0.027461
268.000000, 0.030697
269.000000, 0.028133
270.000000, 0.032821
271.000000, 0.029140
272.000000, 0.032600
273.000000, 0.031375
274.000000, 0.033273
275.000000, 0.029363
276.000000, 0.034608
277.000000, 0.027129
278.000000, 0.031035
279.000000, 0.028135
280.000000, 0.029806
281.000000, 0.027239
282.000000, 0.029804
283.000000, 0.024673
284.000000, 0.026681
285.000000, 0.025454
286.000000, 0.026011
287.000000, 0.024226
288.000000, 0.025119
289.000000, 0.024784
290.000000, 0.024003
291.000000, 0.023669
292.000000, 0.020771
293.000000, 0.023000
294.000000, 0.025006
295.000000, 0.021329
296.000000, 0.021997
297.000000, 0.026232
298.000000, 0.021663
299.000000, 0.025674
300.000000, 0.025005
301.000000, 0.028570
302.000000, 0.021440
303.000000, 0.028905
304.000000, 0.026677
305.000000, 0.027901
306.000000, 0.030018
307.000000, 0.034140
308.000000, 0.027456
309.000000, 0.032026
310.000000, 0.029798
311.000000, 0.033806
312.000000, 0.035477
313.000000, 0.037925
314.000000, 0.031130
315.000000, 0.036593
316.000000, 0.032912
317.000000, 0.035364
318.000000, 0.036601
319.000000, 0.036270
320.000000, 0.035146
321.000000, 0.037730
322.000000, 0.038397
323.000000, 0.036592
324.000000, 0.041303
325.000000, 0.038046
326.000000, 0.037482
327.000000, 0.039841
328.000000, 0.038594
329.000000, 0.044978
330.000000, 0.106074
331.000000, 0.188540
332.000000, 0.181244
333.000000, 0.111418
334.000000, 0.055365
335.000000, 0.040131
336.000000, 0.040684
337.000000, 0.042026
338.000000, 0.037100
339.000000, 0.041012
340.000000, 0.038319
341.000000, 0.038871
342.000000, 0.041098
343.000000, 0.054375
344.000000, 0.078934
345.000000, 0.097577
346.000000, 0.074445
347.000000, 0.049322
348.000000, 0.045522
349.000000, 0.046965
350.000000, 0.044171
351.000000, 0.051296
352.000000, 0.051287
353.000000, 0.057059
354.000000, 0.056492
355.000000, 0.048921
356.000000, 0.039903
357.000000, 0.043685
358.000000, 0.040672
359.000000, 0.042329
360.000000, 0.043105
361.000000, 0.044652
362.000000, 0.039432
363.000000, 0.044420
364.000000, 0.039861
365.000000, 0.041077
366.000000, 0.039739
367.000000, 0.042943
368.000000, 0.037178
369.000000, 0.041607
370.000000, 0.039271
371.000000, 0.039925
372.000000, 0.040140
373.000000, 0.042784
374.000000, 0.036149
375.000000, 0.041659
376.000000, 0.037560
377.000000, 0.038328
378.000000, 0.040773
379.000000, 0.042727
380.000000, 0.039744
381.000000, 0.042043
382.000000, 0.041712
383.000000, 0.041707
384.000000, 0.040054
385.000000, 0.042802
386.000000, 0.038390
387.000000, 0.039699
388.000000, 0.040684
389.000000, 0.044195
390.000000, 0.048799
391.000000, 0.073491
392.000000, 0.176360
393.000000, 2.374362
394.000000, 14.969137
395.000000, 44.470598
396.000000, 77.816333
397.000000, 94.635667
398.000000, 96.869979
399.000000, 96.959202
400.000000, 97.023951
401.000000, 97.068453
402.000000, 97.091607
403.000000, 97.185589
404.000000, 97.190912
405.000000, 97.291434
406.000000, 97.424649
407.000000, 97.489055
408.000000, 97.511075
409.000000, 97.579371
410.000000, 97.568387
411.000000, 97.621322
412.000000, 97.666827
413.000000, 97.604417
414.000000, 97.559468
415.000000, 97.648786
416.000000, 97.597365
417.000000, 97.545190
418.000000, 97.549941
419.000000, 97.488788
420.000000, 97.369407
421.000000, 97.276100
422.000000, 97.137638
423.000000, 97.162427
424.000000, 97.156987
425.000000, 97.045041
426.000000, 97.013896
427.000000, 97.059700
428.000000, 97.066360
429.000000, 97.175044
430.000000, 97.307679
431.000000, 97.339776
432.000000, 97.374705
433.000000, 97.458895
434.000000, 97.459034
435.000000, 97.536006
436.000000, 97.640738
437.000000, 97.655956
438.000000, 97.687955
439.000000, 97.841997
440.000000, 97.966003
441.000000, 98.090969
442.000000, 98.168189
443.000000, 98.178415
444.000000, 98.242567
445.000000, 98.329575
446.000000, 98.318397
447.000000, 98.373858
448.000000, 98.416596
449.000000, 98.431028
450.000000, 98.419274
451.000000, 98.396414
452.000000, 98.429666
453.000000, 98.409827
454.000000, 98.344436
455.000000, 98.307999
456.000000, 98.264356
457.000000, 98.196476
458.000000, 98.181414
459.000000, 98.169888
460.000000, 98.129585
461.000000, 98.072919
462.000000, 98.047386
463.000000, 98.039262
464.000000, 98.044316
465.000000, 98.004124
466.000000, 97.984726
467.000000, 98.038120
468.000000, 98.097112
469.000000, 98.094710
470.000000, 98.135559
471.000000, 98.194356
472.000000, 98.228777
473.000000, 98.244168
474.000000, 98.267650
475.000000, 98.306759
476.000000, 98.391378
477.000000, 98.444846
478.000000, 98.466146
479.000000, 98.490082
480.000000, 98.514479
481.000000, 98.547953
482.000000, 98.574089
483.000000, 98.583525
484.000000, 98.553035
485.000000, 98.508129
486.000000, 98.480732
487.000000, 98.463845
488.000000, 98.459029
489.000000, 98.410906
490.000000, 98.328808
491.000000, 98.297640
492.000000, 98.277969
493.000000, 98.231796
494.000000, 98.187329
495.000000, 98.142882
496.000000, 98.089506
497.000000, 98.031826
498.000000, 97.994770
499.000000, 97.989522
500.000000, 97.980415
501.000000, 97.930457
502.000000, 97.859575
503.000000, 97.825305
504.000000, 97.861113
505.000000, 97.885445
506.000000, 97.882379
507.000000, 97.899993
508.000000, 97.882501
509.000000, 97.885924
510.000000, 97.982118
511.000000, 98.050609
512.000000, 98.079193
513.000000, 98.094907
514.000000, 98.074316
515.000000, 98.061696
516.000000, 98.153488
517.000000, 98.271385
518.000000, 98.355674
519.000000, 98.419369
520.000000, 98.396341
521.000000, 98.316559
522.000000, 98.329734
523.000000, 98.406412
524.000000, 98.473692
525.000000, 98.549337
526.000000, 98.575038
527.000000, 98.516152
528.000000, 98.536864
529.000000, 98.538520
530.000000, 98.519492
531.000000, 98.514847
532.000000, 98.454176
533.000000, 98.369887
534.000000, 98.356787
535.000000, 98.349731
536.000000, 98.315286
537.000000, 98.288290
538.000000, 98.222433
539.000000, 98.154664
540.000000, 98.145304
541.000000, 98.084067
542.000000, 98.014628
543.000000, 97.967016
544.000000, 97.870027
545.000000, 97.825815
546.000000, 97.864380
547.000000, 97.853548
548.000000, 97.809134
549.000000, 97.788735
550.000000, 97.729989
551.000000, 97.689338
552.000000, 97.718232
553.000000, 97.712848
554.000000, 97.697561
555.000000, 97.721389
556.000000, 97.710448
557.000000, 97.739472
558.000000, 97.838422
559.000000, 97.858209
560.000000, 97.843424
561.000000, 97.883858
562.000000, 97.970772
563.000000, 98.019765
564.000000, 98.039815
565.000000, 98.094794
566.000000, 98.110534
567.000000, 98.091972
568.000000, 98.119623
569.000000, 98.125560
570.000000, 98.172292
571.000000, 98.296352
572.000000, 98.292414
573.000000, 98.295643
574.000000, 98.332948
575.000000, 98.318166
576.000000, 98.292048
577.000000, 98.362264
578.000000, 98.312498
579.000000, 98.224862
580.000000, 98.196359
581.000000, 98.170235
582.000000, 98.175359
583.000000, 98.257134
584.000000, 98.199296
585.000000, 98.102550
586.000000, 98.076438
587.000000, 97.985821
588.000000, 97.846526
589.000000, 97.807041
590.000000, 97.722942
591.000000, 97.638005
592.000000, 97.573275
593.000000, 97.427650
594.000000, 97.218629
595.000000, 96.903368
596.000000, 96.116636
597.000000, 88.707892
598.000000, 62.927623
599.000000, 26.563502
600.000000, 5.102472
601.000000, 0.393741
602.000000, 0.046565
603.000000, 0.009470
604.000000, 0.000939
605.000000, 0.000504
606.000000, 0.000195
607.000000, 0.000215
608.000000, 0.000966
609.000000, 0.000092
610.000000, 0.000439
611.000000, 0.000391
612.000000, 0.000201
613.000000, 0.000398
614.000000, 0.000609
615.000000, 0.000398
616.000000, 0.000670
617.000000, 0.000105
618.000000, 0.000241
619.000000, 0.000398
620.000000, 0.000153
621.000000, 0.000098
622.000000, 0.000479
623.000000, 0.000200
624.000000, 0.000179
625.000000, 0.000486
626.000000, 0.000302
627.000000, 0.000172
628.000000, 0.000376
629.000000, 0.000186
630.000000, 0.000158
631.000000, 0.000437
632.000000, 0.000124
633.000000, 0.000158
634.000000, 0.000511
635.000000, 0.000321
636.000000, 0.000260
637.000000, 0.000511
638.000000, 0.000226
639.000000, 0.000321
640.000000, 0.000402
641.000000, 0.000286
642.000000, 0.000225
643.000000, 0.000443
644.000000, 0.000218
645.000000, 0.000313
646.000000, 0.000286
647.000000, 0.000354
648.000000, 0.000306
649.000000, 0.000415
650.000000, 0.000075
651.000000, 0.000245
652.000000, 0.000401
653.000000, 0.000238
654.000000, 0.000021
655.000000, 0.000387
656.000000, 0.000190
657.000000, 0.000183
658.000000, 0.000345
659.000000, 0.000352
660.000000, 0.000237
661.000000, 0.000467
662.000000, 0.000176
663.000000, 0.000392
664.000000, 0.000371
665.000000, 0.000175
666.000000, 0.000175
667.000000, 0.000365
668.000000, 0.000317
669.000000, 0.000472
670.000000, 0.000445
671.000000, 0.000127
672.000000, 0.000363
673.000000, 0.000215
674.000000, 0.000154
675.000000, 0.000289
676.000000, 0.000579
677.000000, 0.000207
678.000000, 0.000301
679.000000, 0.000248
680.000000, 0.000457
681.000000, 0.000429
682.000000, 0.000429
683.000000, 0.000382
684.000000, 0.000341
685.000000, 0.000139
686.000000, 0.000368
687.000000, 0.000219
688.000000, 0.000273
689.000000, 0.000381
690.000000, 0.000239
691.000000, 0.000454
692.000000, 0.000374
693.000000, 0.000346
694.000000, 0.000198
695.000000, 0.000386
696.000000, 0.000298
697.000000, 0.000332
698.000000, 0.000238
699.000000, 0.000392
700.000000, 0.000251
701.000000, 0.000546
702.000000, 0.000284
703.000000, 0.000317
704.000000, 0.000304
705.000000, 0.000304
706.000000, 0.000377
707.000000, 0.000410
708.000000, 0.000444
709.000000, 0.000330
710.000000, 0.000350
711.000000, 0.000430
712.000000, 0.000336
713.000000, 0.000289
714.000000, 0.000463
715.000000, 0.000221
716.000000, 0.000348
717.000000, 0.000341
718.000000, 0.000401
719.000000, 0.000381
720.000000, 0.000535
721.000000, 0.000307
722.000000, 0.000400
723.000000, 0.000340
724.000000, 0.000520
725.000000, 0.000453
726.000000, 0.000366
727.000000, 0.000245
728.000000, 0.000352
729.000000, 0.000412
730.000000, 0.000471
731.000000, 0.000485
732.000000, 0.000484
733.000000, 0.000337
734.000000, 0.000484
735.000000, 0.000424
736.000000, 0.000416
737.000000, 0.000576
738.000000, 0.000449
739.000000, 0.000329
740.000000, 0.000429
741.000000, 0.000482
742.000000, 0.000435
743.000000, 0.000614
744.000000, 0.000481
745.000000, 0.000341
746.000000, 0.000474
747.000000, 0.000440
748.000000, 0.000360
749.000000, 0.000592
750.000000, 0.000386
751.000000, 0.000366
752.000000, 0.000485
753.000000, 0.000478
754.000000, 0.000385
755.000000, 0.000663
756.000000, 0.000497
757.000000, 0.000470
758.000000, 0.000404
759.000000, 0.000482
760.000000, 0.000403
761.000000, 0.000614
762.000000, 0.000455
763.000000, 0.000488
764.000000, 0.000461
765.000000, 0.000481
766.000000, 0.000427
767.000000, 0.000685
768.000000, 0.000460
769.000000, 0.000440
770.000000, 0.000400
771.000000, 0.000512
772.000000, 0.000452
773.000000, 0.000649
774.000000, 0.000385
775.000000, 0.000451
776.000000, 0.000477
777.000000, 0.000536
778.000000, 0.000450
779.000000, 0.000614
780.000000, 0.000443
781.000000, 0.000469
782.000000, 0.000548
783.000000, 0.000547
784.000000, 0.000540
785.000000, 0.000612
786.000000, 0.000645
787.000000, 0.000618
788.000000, 0.000414
789.000000, 0.000703
790.000000, 0.000584
791.000000, 0.000656
792.000000, 0.000478
793.000000, 0.000590
794.000000, 0.000596
795.000000, 0.000563
796.000000, 0.000530
797.000000, 0.000647
798.000000, 0.000627
799.000000, 0.000673
800.000000, 0.000555
801.000000, 0.000554
802.000000, 0.000646
803.000000, 0.000678
804.000000, 0.000527
805.000000, 0.000468
806.000000, 0.000521
807.000000, 0.000540
808.000000, 0.000592
809.000000, 0.000618
810.000000, 0.000500
811.000000, 0.000591
812.000000, 0.000728
813.000000, 0.000636
814.000000, 0.000643
815.000000, 0.000565
816.000000, 0.000512
817.000000, 0.000610
818.000000, 0.000740
819.000000, 0.000669
820.000000, 0.000695
821.000000, 0.000675
822.000000, 0.000636
823.000000, 0.000689
824.000000, 0.000780
825.000000, 0.000676
826.000000, 0.000683
827.000000, 0.000644
828.000000, 0.000651
829.000000, 0.000730
830.000000, 0.000789
831.000000, 0.000705
832.000000, 0.000816
833.000000, 0.000738
834.000000, 0.000739
835.000000, 0.000779
836.000000, 0.000865
837.000000, 0.000702
838.000000, 0.000768
839.000000, 0.000684
840.000000, 0.000744
841.000000, 0.000817
842.000000, 0.000851
843.000000, 0.000713
844.000000, 0.000774
845.000000, 0.000683
846.000000, 0.000716
847.000000, 0.000796
848.000000, 0.000823
849.000000, 0.000718
850.000000, 0.000725
851.000000, 0.000627
852.000000, 0.000674
853.000000, 0.000820
854.000000, 0.000900
855.000000, 0.000774
856.000000, 0.000768
857.000000, 0.000736
858.000000, 0.000815
859.000000, 0.000803
860.000000, 0.000609
861.000000, 0.000466
862.000000, 0.000673
863.000000, 0.000801
864.000000, 0.000794
865.000000, 0.000716
866.000000, 0.000631
867.000000, 0.000463
868.000000, 0.000431
869.000000, 0.000657
870.000000, 0.000808
871.000000, 0.000879
872.000000, 0.000852
873.000000, 0.000597
874.000000, 0.000370
875.000000, 0.000433
876.000000, 0.000637
877.000000, 0.000740
878.000000, 0.000841
879.000000, 0.000829
880.000000, 0.000649
881.000000, 0.000595
882.000000, 0.000704
883.000000, 0.000735
884.000000, 0.000644
885.000000, 0.000540
886.000000, 0.000481
887.000000, 0.000506
888.000000, 0.000681
889.000000, 0.000939
890.000000, 0.000879
891.000000, 0.000680
892.000000, 0.000603
893.000000, 0.000556
894.000000, 0.000578
895.000000, 0.000632
896.000000, 0.000681
897.000000, 0.000689
898.000000, 0.000735
899.000000, 0.000804
900.000000, 0.000665
901.000000, 0.000530
902.000000, 0.000530
903.000000, 0.000605
904.000000, 0.000700
905.000000, 0.000742
906.000000, 0.000628
907.000000, 0.000522
908.000000, 0.000599
909.000000, 0.000780
910.000000, 0.000779
911.000000, 0.000646
912.000000, 0.000677
913.000000, 0.000762
914.000000, 0.000677
915.000000, 0.000574
916.000000, 0.000587
917.000000, 0.000690
918.000000, 0.000665
919.000000, 0.000649
920.000000, 0.000748
921.000000, 0.000635
922.000000, 0.000534
923.000000, 0.000539
924.000000, 0.000646
925.000000, 0.000746
926.000000, 0.000702
927.000000, 0.000707
928.000000, 0.000631
929.000000, 0.000640
930.000000, 0.000738
931.000000, 0.000929
932.000000, 0.000726
933.000000, 0.000378
934.000000, 0.000525
935.000000, 0.000753
936.000000, 0.000654
937.000000, 0.000618
938.000000, 0.000649
939.000000, 0.000684
940.000000, 0.000757
941.000000, 0.000606
942.000000, 0.000591
943.000000, 0.000727
944.000000, 0.000644
945.000000, 0.000674
946.000000, 0.000895
947.000000, 0.000883
948.000000, 0.000575
949.000000, 0.000350
950.000000, 0.000563
951.000000, 0.000851
952.000000, 0.000800
953.000000, 0.000650
954.000000, 0.000640
955.000000, 0.000679
956.000000, 0.000786
957.000000, 0.000692
958.000000, 0.000667
959.000000, 0.000735
960.000000, 0.000579
961.000000, 0.000394
962.000000, 0.000581
963.000000, 0.000964
964.000000, 0.000997
965.000000, 0.000737
966.000000, 0.000497
967.000000, 0.000545
968.000000, 0.000692
969.000000, 0.000888
970.000000, 0.000707
971.000000, 0.000621
972.000000, 0.000686
973.000000, 0.000696
974.000000, 0.000675
975.000000, 0.000668
976.000000, 0.000665
977.000000, 0.000606
978.000000, 0.000577
979.000000, 0.000715
980.000000, 0.000913
981.000000, 0.000682
982.000000, 0.000615
983.000000, 0.000632
984.000000, 0.000653
985.000000, 0.000659
986.000000, 0.000702
987.000000, 0.000804
988.000000, 0.000712
989.000000, 0.000669
990.000000, 0.000675
991.000000, 0.000694
992.000000, 0.000665
993.000000, 0.000757
994.000000, 0.000781
995.000000, 0.000745
996.000000, 0.000758
997.000000, 0.000641
998.000000, 0.000426
999.000000, 0.000682
1000.000000, 0.000717
1001.000000, 0.000716
1002.000000, 0.000659
1003.000000, 0.000447
1004.000000, 0.000590
1005.000000, 0.000688
1006.000000, 0.000673
1007.000000, 0.000658
1008.000000, 0.000708
1009.000000, 0.000793
1010.000000, 0.000678
1011.000000, 0.000629
1012.000000, 0.000650
1013.000000, 0.000642
1014.000000, 0.000614
1015.000000, 0.000643
1016.000000, 0.000680
1017.000000, 0.000654
1018.000000, 0.000607
1019.000000, 0.000633
1020.000000, 0.000693
1021.000000, 0.000821
1022.000000, 0.000620
1023.000000, 0.000638
1024.000000, 0.000565
1025.000000, 0.000649
1026.000000, 0.000920
1027.000000, 0.000855
1028.000000, 0.000609
1029.000000, 0.000566
1030.000000, 0.000602
1031.000000, 0.000532
1032.000000, 0.000624
1033.000000, 0.000955
1034.000000, 0.000903
1035.000000, 0.000615
1036.000000, 0.000521
1037.000000, 0.000564
1038.000000, 0.000457
1039.000000, 0.000589
1040.000000, 0.000879
1041.000000, 0.000879
1042.000000, 0.000813
1043.000000, 0.000542
1044.000000, 0.000556
1045.000000, 0.000510
1046.000000, 0.000542
1047.000000, 0.000845
1048.000000, 0.000866
1049.000000, 0.000911
1050.000000, 0.000823
1051.000000, 0.000555
1052.000000, 0.000424
1053.000000, 0.000430
1054.000000, 0.000506
1055.000000, 0.000733
1056.000000, 0.000789
1057.000000, 0.000824
1058.000000, 0.000908
1059.000000, 0.000770
1060.000000, 0.000439
1061.000000, 0.000353
1062.000000, 0.000438
1063.000000, 0.000711
1064.000000, 0.000804
1065.000000, 0.000889
1066.000000, 0.000773
1067.000000, 0.000789
1068.000000, 0.000867
1069.000000, 0.000878
1070.000000, 0.000802
1071.000000, 0.000369
1072.000000, 0.000447
1073.000000, 0.000592
1074.000000, 0.000760
1075.000000, 0.000844
1076.000000, 0.000866
1077.000000, 0.000810
1078.000000, 0.000538
1079.000000, 0.000549
1080.000000, 0.000553
1081.000000, 0.000501
1082.000000, 0.000534
1083.000000, 0.000890
1084.000000, 0.000849
1085.000000, 0.000714
1086.000000, 0.000503
1087.000000, 0.000533
1088.000000, 0.000658
1089.000000, 0.000856
1090.000000, 0.000858
1091.000000, 0.000893
1092.000000, 0.000765
1093.000000, 0.000539
1094.000000, 0.000589
1095.000000, 0.000550
1096.000000, 0.000520
1097.000000, 0.000496
1098.000000, 0.000573
1099.000000, 0.000830
1100.000000, 0.000947
1101.000000, 0.000856
1102.000000, 0.000594
1103.000000, 0.000592
1104.000000, 0.000458
1105.000000, 0.000396
1106.000000, 0.000403
1107.000000, 0.000333
1108.000000, 0.000434
1109.000000, 0.000711
1110.000000, 0.000783
1111.000000, 0.000765
1112.000000, 0.000731
1113.000000, 0.000740
1114.000000, 0.000736
1115.000000, 0.000805
1116.000000, 0.000829
1117.000000, 0.000871
1118.000000, 0.000961
1119.000000, 0.000942
1120.000000, 0.000983
1121.000000, 0.000877
1122.000000, 0.000514
1123.000000, 0.000578
1124.000000, 0.000524
1125.000000, 0.000564
1126.000000, 0.000551
1127.000000, 0.000499
1128.000000, 0.000637
1129.000000, 0.000935
1130.000000, 0.000905
1131.000000, 0.000705
1132.000000, 0.000341
1133.000000, 0.000484
1134.000000, 0.000674
1135.000000, 0.000630
1136.000000, 0.000628
1137.000000, 0.000666
1138.000000, 0.000708
1139.000000, 0.000791
1140.000000, 0.000790
1141.000000, 0.000714
1142.000000, 0.000759
1143.000000, 0.000738
1144.000000, 0.000733
1145.000000, 0.000639
1146.000000, 0.000524
1147.000000, 0.000802
1148.000000, 0.000807
1149.000000, 0.000722
1150.000000, 0.000754
1151.000000, 0.000764
1152.000000, 0.000777
1153.000000, 0.000807
1154.000000, 0.000790
1155.000000, 0.000707
1156.000000, 0.000415
1157.000000, 0.000329
1158.000000, 0.000434
1159.000000, 0.000634
1160.000000, 0.000683
1161.000000, 0.000653
1162.000000, 0.000679
1163.000000, 0.000680
1164.000000, 0.000656
1165.000000, 0.000641
1166.000000, 0.000646
1167.000000, 0.000627
1168.000000, 0.000605
1169.000000, 0.000631
1170.000000, 0.000648
1171.000000, 0.000820
1172.000000, 0.000958
1173.000000, 0.000953
1174.000000, 0.000835
1175.000000, 0.000660
1176.000000, 0.000676
1177.000000, 0.000707
1178.000000, 0.000700
1179.000000, 0.000692
1180.000000, 0.000684
1181.000000, 0.000647
1182.000000, 0.000673
1183.000000, 0.000652
1184.000000, 0.000665
1185.000000, 0.000679
1186.000000, 0.000680
1187.000000, 0.000708
1188.000000, 0.000674
1189.000000, 0.000702
1190.000000, 0.000702
1191.000000, 0.000714
1192.000000, 0.000783
1193.000000, 0.000745
1194.000000, 0.000654
1195.000000, 0.000660
1196.000000, 0.000653
1197.000000, 0.000660
1198.000000, 0.000715
1199.000000, 0.000749
1200.000000, 0.000759
1201.000000, 0.000697
1202.000000, 0.000693
1203.000000, 0.000697
1204.000000, 0.000696
1205.000000, 0.000721
1206.000000, 0.000789
1207.000000, 0.000776
1208.000000, 0.000563
1209.000000, 0.000560
1210.000000, 0.000757
1211.000000, 0.000764
1212.000000, 0.000815
1213.000000, 0.000805
1214.000000, 0.000577
1215.000000, 0.000364
1216.000000, 0.000374
1217.000000, 0.000545
1218.000000, 0.000709
1219.000000, 0.000724
1220.000000, 0.000705
1221.000000, 0.000617
1222.000000, 0.000602
1223.000000, 0.000690
1224.000000, 0.000680
1225.000000, 0.000653
1226.000000, 0.000677
1227.000000, 0.000670
1228.000000, 0.000683
1229.000000, 0.000765
1230.000000, 0.000755
1231.000000, 0.000718
1232.000000, 0.000737
1233.000000, 0.000780
1234.000000, 0.000923
1235.000000, 0.000994
1236.000000, 0.000966
1237.000000, 0.000929
1238.000000, 0.000840
1239.000000, 0.000715
1240.000000, 0.000521
1241.000000, 0.000524
1242.000000, 0.000717
1243.000000, 0.000748
1244.000000, 0.000799
1245.000000, 0.000866
1246.000000, 0.000860
1247.000000, 0.000809
1248.000000, 0.000816
1249.000000, 0.000846
1250.000000, 0.000858
1251.000000, 0.000869
1252.000000, 0.000882
1253.000000, 0.000821
1254.000000, 0.000571
1255.000000, 0.000411
1256.000000, 0.000608
1257.000000, 0.000797
1258.000000, 0.000834
1259.000000, 0.000940
1260.000000, 0.001138
1261.000000, 0.001109
1262.000000, 0.000950
1263.000000, 0.000843
1264.000000, 0.000947
1265.000000, 0.001081
1266.000000, 0.001076
1267.000000, 0.001146
1268.000000, 0.001162
1269.000000, 0.001139
1270.000000, 0.001087
1271.000000, 0.001029
1272.000000, 0.000945
1273.000000, 0.000890
1274.000000, 0.000887
1275.000000, 0.000892
1276.000000, 0.000841
1277.000000, 0.000763
1278.000000, 0.000779
1279.000000, 0.000791
1280.000000, 0.000778
1281.000000, 0.000781
1282.000000, 0.000776
1283.000000, 0.000798
1284.000000, 0.000764
1285.000000, 0.001765
1286.000000, 0.005805
1287.000000, 0.005823
1288.000000, 0.010932
1289.000000, 0.011094
1290.000000, 0.021342
1291.000000, 0.041863
1292.000000, 0.072528
1293.000000, 0.103120
1294.000000, 0.153315
1295.000000, 0.242960
1296.000000, 0.348311
1297.000000, 0.277241
1298.000000, 0.243491
1299.000000, 0.196163
1300.000000, 0.201775
1301.000000, 0.262821
1302.000000, 0.345444
1303.000000, 0.447533
1304.000000, 0.595991
1305.000000, 0.762318
1306.000000, 0.888473
1307.000000, 0.888230
1308.000000, 0.782680
1309.000000, 0.657507
1310.000000, 0.547975
1311.000000, 0.471177
1312.000000, 0.432390
1313.000000, 0.429969
1314.000000, 0.430960
1315.000000, 0.479420
1316.000000, 0.571480
1317.000000, 0.612357
1318.000000, 0.659081
1319.000000, 0.707182
1320.000000, 0.666276
1321.000000, 0.622707
1322.000000, 0.562331
1323.000000, 0.517195
1324.000000, 0.526702
1325.000000, 0.503548
1326.000000, 0.478625
1327.000000, 0.493297
1328.000000, 0.509006
1329.000000, 0.547999
1330.000000, 0.600760
1331.000000, 0.686837
1332.000000, 0.814843
1333.000000, 1.016577
1334.000000, 1.303469
1335.000000, 1.700517
1336.000000, 2.292844
1337.000000, 3.083073
1338.000000, 3.939229
1339.000000, 4.537854
1340.000000, 4.730038
1341.000000, 4.526233
1342.000000, 4.119987
1343.000000, 3.784619
1344.000000, 3.623648
1345.000000, 3.616192
1346.000000, 3.795388
1347.000000, 4.194115
1348.000000, 4.905536
1349.000000, 5.990251
1350.000000, 7.821145
1351.000000, 11.024982
1352.000000, 16.232665
1353.000000, 24.361366
1354.000000, 33.133266
1355.000000, 39.152149
1356.000000, 38.988611
1357.000000, 33.738549
1358.000000, 27.507276
1359.000000, 22.503181
1360.000000, 19.457083
1361.000000, 17.766297
1362.000000, 17.166366
1363.000000, 17.463147
1364.000000, 18.524759
1365.000000, 20.178462
1366.000000, 22.341475
1367.000000, 25.146276
1368.000000, 28.352490
1369.000000, 31.278683
1370.000000, 33.874347
1371.000000, 36.124063
1372.000000, 37.486115
1373.000000, 37.927365
1374.000000, 37.661165
1375.000000, 36.865219
1376.000000, 35.669630
1377.000000, 34.088774
1378.000000, 32.186603
1379.000000, 30.181655
1380.000000, 28.064858
1381.000000, 26.002050
1382.000000, 24.033931
1383.000000, 22.247054
1384.000000, 20.917768
1385.000000, 20.175671
1386.000000, 19.936247
1387.000000, 20.199230
1388.000000, 21.011734
1389.000000, 22.279624
1390.000000, 24.101373
1391.000000, 26.843864
1392.000000, 30.447672
1393.000000, 34.594600
1394.000000, 38.503638
1395.000000, 41.658412
1396.000000, 42.715059
1397.000000, 41.277055
1398.000000, 38.357104
1399.000000, 34.245053
1400.000000, 29.488284
1401.000000, 25.801508
1402.000000, 23.198504
1403.000000, 21.305710
1404.000000, 19.969038
1405.000000, 19.174833
1406.000000, 19.007905
1407.000000, 19.263023
1408.000000, 20.019359
1409.000000, 21.251756
1410.000000, 22.833064
1411.000000, 24.883726
1412.000000, 27.329554
1413.000000, 30.364820
1414.000000, 33.767186
1415.000000, 36.879439
1416.000000, 39.684227
1417.000000, 42.004223
1418.000000, 43.579272
1419.000000, 44.576576
1420.000000, 44.877663
1421.000000, 44.753709
1422.000000, 44.431384
1423.000000, 44.074838
1424.000000, 43.834429
1425.000000, 43.733644
1426.000000, 43.822412
1427.000000, 44.054475
1428.000000, 44.378664
1429.000000, 44.726571
1430.000000, 45.012166
1431.000000, 45.159386
1432.000000, 45.202984
1433.000000, 45.102679
1434.000000, 44.901510
1435.000000, 44.652541
1436.000000, 44.325924
1437.000000, 44.008911
1438.000000, 43.694022
1439.000000, 43.362964
1440.000000, 42.944581
1441.000000, 42.388458
1442.000000, 41.684921
1443.000000, 40.811235
1444.000000, 39.752318
1445.000000, 38.415121
1446.000000, 37.027048
1447.000000, 35.573194
1448.000000, 34.328069
1449.000000, 33.188907
1450.000000, 32.195614
1451.000000, 31.441665
1452.000000, 30.967191
1453.000000, 30.805266
1454.000000, 30.925169
1455.000000, 31.372553
1456.000000, 32.062972
1457.000000, 33.127906
1458.000000, 34.504897
1459.000000, 36.212575
1460.000000, 37.925963
1461.000000, 39.668176
1462.000000, 41.475863
1463.000000, 43.097528
1464.000000, 44.256434
1465.000000, 45.027046
1466.000000, 45.286702
1467.000000, 45.074778
1468.000000, 44.592824
1469.000000, 43.920333
1470.000000, 43.266413
1471.000000, 42.645565
1472.000000, 42.220879
1473.000000, 41.913715
1474.000000, 41.797400
1475.000000, 41.868951
1476.000000, 42.046618
1477.000000, 42.222836
1478.000000, 42.264592
1479.000000, 42.055670
1480.000000, 41.532281
1481.000000, 40.598635
1482.000000, 39.336532
1483.000000, 37.794079
1484.000000, 36.119533
1485.000000, 34.324408
1486.000000, 32.659512
1487.000000, 31.106260
1488.000000, 29.837952
1489.000000, 28.803819
1490.000000, 28.074187
1491.000000, 27.634168
1492.000000, 27.519512
1493.000000, 27.716408
1494.000000, 28.266355
1495.000000, 29.162000
1496.000000, 30.378734
1497.000000, 31.907657
1498.000000, 33.725816
1499.000000, 35.818933
1500.000000, 38.212364
1501.000000, 40.777917
1502.000000, 43.326087
1503.000000, 45.697456
1504.000000, 47.700590
1505.000000, 49.212085
1506.000000, 49.993669
1507.000000, 50.180694
1508.000000, 49.847089
1509.000000, 49.102629
1510.000000, 48.165008
1511.000000, 47.108475
1512.000000, 46.172206
1513.000000, 45.347458
1514.000000, 44.666698
1515.000000, 44.319552
1516.000000, 44.243356
1517.000000, 44.435968
1518.000000, 44.854421
1519.000000, 45.452883
1520.000000, 46.160596
1521.000000, 46.917431
1522.000000, 47.742774
1523.000000, 48.548967
1524.000000, 49.316726
1525.000000, 50.003841
1526.000000, 50.598371
1527.000000, 51.082297
1528.000000, 51.471204
1529.000000, 51.752142
1530.000000, 51.981645
1531.000000, 52.210598
1532.000000, 52.444737
1533.000000, 52.670232
1534.000000, 52.882289
1535.000000, 53.122474
1536.000000, 53.404809
1537.000000, 53.666449
1538.000000, 53.859928
1539.000000, 54.007215
1540.000000, 54.039476
1541.000000, 53.951353
1542.000000, 53.827236
1543.000000, 53.632224
1544.000000, 53.367894
1545.000000, 53.059039
1546.000000, 52.754846
1547.000000, 52.459696
1548.000000, 52.223997
1549.000000, 52.071984
1550.000000, 52.028100
1551.000000, 52.033129
1552.000000, 52.159183
1553.000000, 52.414532
1554.000000, 52.726697
1555.000000, 53.077702
1556.000000, 53.449669
1557.000000, 53.798586
1558.000000, 54.030849
1559.000000, 54.170059
1560.000000, 54.199990
1561.000000, 54.090741
1562.000000, 53.864888
1563.000000, 53.536686
1564.000000, 53.160096
1565.000000, 52.746554
1566.000000, 52.353033
1567.000000, 52.072186
1568.000000, 51.899475
1569.000000, 51.884520
1570.000000, 52.043325
1571.000000, 52.362681
1572.000000, 52.859471
1573.000000, 53.548458
1574.000000, 54.380332
1575.000000, 55.309939
1576.000000, 56.269953
1577.000000, 57.184919
1578.000000, 57.936462
1579.000000, 58.430367
1580.000000, 58.558206
1581.000000, 58.282330
1582.000000, 57.552415
1583.000000, 56.399391
1584.000000, 54.868561
1585.000000, 53.041254
1586.000000, 51.043637
1587.000000, 48.980558
1588.000000, 46.943067
1589.000000, 44.976230
1590.000000, 43.279756
1591.000000, 41.828518
1592.000000, 40.726118
1593.000000, 39.886444
1594.000000, 39.382761
1595.000000, 39.213330
1596.000000, 39.370813
1597.000000, 39.845948
1598.000000, 40.651514
1599.000000, 41.775561
1600.000000, 43.191485
1601.000000, 44.917077
1602.000000, 46.920420
1603.000000, 49.079990
1604.000000, 51.372059
1605.000000, 53.721102
1606.000000, 55.984387
1607.000000, 58.075276
1608.000000, 59.850475
1609.000000, 61.264873
1610.000000, 62.315537
1611.000000, 62.960142
1612.000000, 63.202036
1613.000000, 63.105369
1614.000000, 62.741952
1615.000000, 62.192320
1616.000000, 61.549215
1617.000000, 60.937681
1618.000000, 60.412144
1619.000000, 59.997515
1620.000000, 59.777182
1621.000000, 59.768161
1622.000000, 59.965115
1623.000000, 60.350431
1624.000000, 60.915439
1625.000000, 61.620720
1626.000000, 62.406864
1627.000000, 63.245901
1628.000000, 64.069636
1629.000000, 64.801876
1630.000000, 65.340986
1631.000000, 65.644936
1632.000000, 65.656665
1633.000000, 65.337556
1634.000000, 64.716054
1635.000000, 63.756816
1636.000000, 62.543311
1637.000000, 61.199046
1638.000000, 59.763787
1639.000000, 58.306227
1640.000000, 56.870343
1641.000000, 55.511268
1642.000000, 54.289784
1643.000000, 53.244183
1644.000000, 52.350505
1645.000000, 51.666949
1646.000000, 51.207626
1647.000000, 50.931255
1648.000000, 50.850670
1649.000000, 50.956713
1650.000000, 51.277249
1651.000000, 51.742780
1652.000000, 52.370565
1653.000000, 53.183534
1654.000000, 54.143375
1655.000000, 55.229052
1656.000000, 56.442487
1657.000000, 57.731968
1658.000000, 59.097883
1659.000000, 60.495177
1660.000000, 61.908750
1661.000000, 63.344413
1662.000000, 64.763237
1663.000000, 66.088164
1664.000000, 67.353113
1665.000000, 68.500968
1666.000000, 69.504724
1667.000000, 70.364333
1668.000000, 71.039902
1669.000000, 71.542650
1670.000000, 71.906057
1671.000000, 72.146965
1672.000000, 72.258127
1673.000000, 72.292154
1674.000000, 72.231255
1675.000000, 72.071352
1676.000000, 71.903474
1677.000000, 71.744054
1678.000000, 71.579345
1679.000000, 71.449346
1680.000000, 71.364415
1681.000000, 71.298686
1682.000000, 71.254096
1683.000000, 71.208593
1684.000000, 71.142149
1685.000000, 71.084961
1686.000000, 70.998024
1687.000000, 70.825469
1688.000000, 70.579223
1689.000000, 70.231802
1690.000000, 69.730164
1691.000000, 69.114575
1692.000000, 68.318772
1693.000000, 67.390870
1694.000000, 66.346287
1695.000000, 65.195527
1696.000000, 63.823049
1697.000000, 62.396855
1698.000000, 60.961036
1699.000000, 59.557258
1700.000000, 58.174732
1701.000000, 56.866609
1702.000000, 55.631046
1703.000000, 54.517840
1704.000000, 53.552071
1705.000000, 52.760784
1706.000000, 52.142938
1707.000000, 51.738587
1708.000000, 51.543158
1709.000000, 51.555001
1710.000000, 51.788076
1711.000000, 52.242501
1712.000000, 52.947229
1713.000000, 53.902322
1714.000000, 55.093278
1715.000000, 56.502422
1716.000000, 58.153989
1717.000000, 59.940833
1718.000000, 61.906012
1719.000000, 63.875773
1720.000000, 65.917046
1721.000000, 67.979449
1722.000000, 69.947897
1723.000000, 71.700031
1724.000000, 73.317038
1725.000000, 74.606137
1726.000000, 75.581814
1727.000000, 76.244994
1728.000000, 76.568352
1729.000000, 76.582951
1730.000000, 76.323037
1731.000000, 75.827092
1732.000000, 75.182114
1733.000000, 74.480414
1734.000000, 73.684665
1735.000000, 72.913806
1736.000000, 72.165813
1737.000000, 71.573826
1738.000000, 71.071198
1739.000000, 70.743365
1740.000000, 70.537736
1741.000000, 70.492595
1742.000000, 70.584809
1743.000000, 70.815794
1744.000000, 71.162744
1745.000000, 71.606970
1746.000000, 72.095066
1747.000000, 72.624258
1748.000000, 73.154349
1749.000000, 73.615739
1750.000000, 73.995321
1751.000000, 74.247788
1752.000000, 74.359019
1753.000000, 74.313250
1754.000000, 74.114020
1755.000000, 73.768010
1756.000000, 73.275532
1757.000000, 72.711910
1758.000000, 72.045511
1759.000000, 71.352901
1760.000000, 70.653297
1761.000000, 69.969762
1762.000000, 69.331697
1763.000000, 68.817865
1764.000000, 68.396006
1765.000000, 68.132718
1766.000000, 68.001850
1767.000000, 68.034040
1768.000000, 68.162385
1769.000000, 68.472706
1770.000000, 68.964858
1771.000000, 69.566810
1772.000000, 70.336551
1773.000000, 71.202105
1774.000000, 72.173923
1775.000000, 73.207305
1776.000000, 74.359531
1777.000000, 75.487358
1778.000000, 76.691517
1779.000000, 77.868392
1780.000000, 79.081657
1781.000000, 80.128015
1782.000000, 81.149697
1783.000000, 81.965603
1784.000000, 82.689500
1785.000000, 83.311285
1786.000000, 83.780970
1787.000000, 84.100698
1788.000000, 84.256363
1789.000000, 84.301552
1790.000000, 84.242580
1791.000000, 84.128747
1792.000000, 83.895777
1793.000000, 83.640161
1794.000000, 83.288111
1795.000000, 82.876996
1796.000000, 82.472836
1797.000000, 81.986265
1798.000000, 81.442485
1799.000000, 80.880167
1800.000000, 80.269530
1801.000000, 79.606725
1802.000000, 78.964201
1803.000000, 78.221222
1804.000000, 77.475099
1805.000000, 76.710888
1806.000000, 75.883881
1807.000000, 75.051967
1808.000000, 74.259380
1809.000000, 73.461431
1810.000000, 72.721674
1811.000000, 71.917579
1812.000000, 71.201409
1813.000000, 70.567383
1814.000000, 70.050343
1815.000000, 69.563461
1816.000000, 69.229229
1817.000000, 69.031190
1818.000000, 68.939096
1819.000000, 68.926092
1820.000000, 69.179750
1821.000000, 69.398720
1822.000000, 69.804675
1823.000000, 70.271685
1824.000000, 70.914455
1825.000000, 71.566591
1826.000000, 72.460679
1827.000000, 73.384428
1828.000000, 74.280201
1829.000000, 75.263669
1830.000000, 76.157461
1831.000000, 76.959796
1832.000000, 77.700497
1833.000000, 78.205396
1834.000000, 78.679974
1835.000000, 78.965078
1836.000000, 79.146081
1837.000000, 79.199978
1838.000000, 79.054405
1839.000000, 78.740886
1840.000000, 78.360669
1841.000000, 77.894545
1842.000000, 77.401801
1843.000000, 76.975274
1844.000000, 76.480578
1845.000000, 76.137377
1846.000000, 75.845611
1847.000000, 75.557967
1848.000000, 75.430142
1849.000000, 75.375582
1850.000000, 75.497502
1851.000000, 75.718706
1852.000000, 76.170520
1853.000000, 76.634560
1854.000000, 77.352656
1855.000000, 78.153412
1856.000000, 79.004080
1857.000000, 79.845462
1858.000000, 80.845339
1859.000000, 82.001716
1860.000000, 83.080399
1861.000000, 84.094823
1862.000000, 84.994491
1863.000000, 85.638679
1864.000000, 86.242508
1865.000000, 86.605904
1866.000000, 86.735109
1867.000000, 86.738312
1868.000000, 86.562295
1869.000000, 86.089433
1870.000000, 85.433753
1871.000000, 84.658474
1872.000000, 83.741514
1873.000000, 82.759951
1874.000000, 81.776612
1875.000000, 80.823482
1876.000000, 79.917695
1877.000000, 79.144517
1878.000000, 78.446007
1879.000000, 77.949869
1880.000000, 77.629770
1881.000000, 77.433891
1882.000000, 77.388567
1883.000000, 77.544785
1884.000000, 77.866387
1885.000000, 78.345958
1886.000000, 78.914408
1887.000000, 79.579722
1888.000000, 80.381644
1889.000000, 81.317272
1890.000000, 82.273134
1891.000000, 83.303859
1892.000000, 84.333636
1893.000000, 85.150662
1894.000000, 85.794527
1895.000000, 86.287361
1896.000000, 86.536013
1897.000000, 86.629546
1898.000000, 86.432316
1899.000000, 85.975692
1900.000000, 85.250134
1901.000000, 84.336678
1902.000000, 83.181789
1903.000000, 81.907861
1904.000000, 80.386621
1905.000000, 78.746138
1906.000000, 76.988690
1907.000000, 75.283225
1908.000000, 73.746949
1909.000000, 72.275278
1910.000000, 70.981586
1911.000000, 69.765386
1912.000000, 68.654699
1913.000000, 67.602999
1914.000000, 66.772373
1915.000000, 66.222764
1916.000000, 65.892490
1917.000000, 65.729352
1918.000000, 65.761781
1919.000000, 66.004882
1920.000000, 66.428697
1921.000000, 67.103608
1922.000000, 67.930133
1923.000000, 68.828970
1924.000000, 69.869103
1925.000000, 71.018005
1926.000000, 72.281217
1927.000000, 73.596503
1928.000000, 74.997021
1929.000000, 76.437039
1930.000000, 77.812645
1931.000000, 79.055643
1932.000000, 80.225255
1933.000000, 81.322436
1934.000000, 82.281822
1935.000000, 83.018324
1936.000000, 83.585531
1937.000000, 83.999822
1938.000000, 84.256920
1939.000000, 84.295303
1940.000000, 84.171992
1941.000000, 83.898058
1942.000000, 83.494288
1943.000000, 83.028573
1944.000000, 82.480737
1945.000000, 81.930219
1946.000000, 81.362644
1947.000000, 80.771997
1948.000000, 80.238663
1949.000000, 79.833626
1950.000000, 79.507400
1951.000000, 79.315203
1952.000000, 79.184051
1953.000000, 79.166120
1954.000000, 79.262608
1955.000000, 79.508807
1956.000000, 79.854723
1957.000000, 80.297550
1958.000000, 80.825407
1959.000000, 81.406591
1960.000000, 82.054873
1961.000000, 82.778466
1962.000000, 83.503794
1963.000000, 84.224786
1964.000000, 84.919402
1965.000000, 85.585146
1966.000000, 86.229075
1967.000000, 86.811311
1968.000000, 87.294671
1969.000000, 87.680327
1970.000000, 87.991986
1971.000000, 88.225479
1972.000000, 88.362301
1973.000000, 88.392922
1974.000000, 88.349622
1975.000000, 88.242323
1976.000000, 88.092530
1977.000000, 87.897101
1978.000000, 87.659883
1979.000000, 87.375420
1980.000000, 87.100912
1981.000000, 86.832891
1982.000000, 86.563096
1983.000000, 86.321840
1984.000000, 86.117799
1985.000000, 85.956997
1986.000000, 85.811872
1987.000000, 85.700039
1988.000000, 85.618525
1989.000000, 85.570699
1990.000000, 85.543964
1991.000000, 85.528344
1992.000000, 85.506737
1993.000000, 85.486778
1994.000000, 85.467594
1995.000000, 85.429825
1996.000000, 85.382447
1997.000000, 85.320118
1998.000000, 85.176433
1999.000000, 84.990260
2000.000000, 84.775670
2001.000000, 84.504750
2002.000000, 84.241395
2003.000000, 83.944743
2004.000000, 83.604809
2005.000000, 83.265070
2006.000000, 82.926594
2007.000000, 82.581493
2008.000000, 82.271884
2009.000000, 82.004348
2010.000000, 81.733991
2011.000000, 81.505460
2012.000000, 81.343724
2013.000000, 81.236638
2014.000000, 81.223736
2015.000000, 81.247748
2016.000000, 81.322558
2017.000000, 81.500605
2018.000000, 81.738869
2019.000000, 82.051101
2020.000000, 82.419041
2021.000000, 82.853768
2022.000000, 83.342510
2023.000000, 83.858096
2024.000000, 84.406107
2025.000000, 84.980319
2026.000000, 85.522136
2027.000000, 86.037647
2028.000000, 86.516327
2029.000000, 86.910896
2030.000000, 87.227323
2031.000000, 87.436098
2032.000000, 87.536003
2033.000000, 87.474857
2034.000000, 87.276005
2035.000000, 86.942947
2036.000000, 86.511304
2037.000000, 85.995991
2038.000000, 85.301578
2039.000000, 84.492798
2040.000000, 83.643499
2041.000000, 82.759801
2042.000000, 81.870999
2043.000000, 80.924990
2044.000000, 79.975756
2045.000000, 79.095025
2046.000000, 78.296263
2047.000000, 77.533096
2048.000000, 76.877540
2049.000000, 76.260295
2050.000000, 75.739405
2051.000000, 75.318932
2052.000000, 75.038244
2053.000000, 74.907205
2054.000000, 74.826188
2055.000000, 74.889729
2056.000000, 75.076501
2057.000000, 75.364805
2058.000000, 75.779293
2059.000000, 76.293531
2060.000000, 76.928770
2061.000000, 77.640717
2062.000000, 78.417690
2063.000000, 79.256455
2064.000000, 80.155353
2065.000000, 81.089856
2066.000000, 82.037973
2067.000000, 82.981058
2068.000000, 83.845224
2069.000000, 84.633422
2070.000000, 85.304689
2071.000000, 85.904573
2072.000000, 86.371071
2073.000000, 86.668834
2074.000000, 86.783113
2075.000000, 86.748316
2076.000000, 86.577893
2077.000000, 86.205854
2078.000000, 85.736260
2079.000000, 85.116622
2080.000000, 84.401721
2081.000000, 83.616141
2082.000000, 82.787667
2083.000000, 81.933431
2084.000000, 81.030143
2085.000000, 80.142235
2086.000000, 79.331135
2087.000000, 78.568608
2088.000000, 77.888831
2089.000000, 77.227815
2090.000000, 76.722338
2091.000000, 76.311083
2092.000000, 76.000483
2093.000000, 75.835815
2094.000000, 75.761745
2095.000000, 75.803850
2096.000000, 75.987152
2097.000000, 76.291998
2098.000000, 76.687991
2099.000000, 77.210542
2100.000000, 77.842715
2101.000000, 78.616350
2102.000000, 79.471933
2103.000000, 80.384033
2104.000000, 81.354583
2105.000000, 82.408430
2106.000000, 83.493891
2107.000000, 84.540225
2108.000000, 85.581054
2109.000000, 86.620229
2110.000000, 87.553943
2111.000000, 88.391063
2112.000000, 89.106777
2113.000000, 89.683908
2114.000000, 90.092172
2115.000000, 90.352320
2116.000000, 90.449346
2117.000000, 90.381191
2118.000000, 90.077325
2119.000000, 89.650450
2120.000000, 89.089596
2121.000000, 88.404571
2122.000000, 87.722975
2123.000000, 86.833995
2124.000000, 85.924639
2125.000000, 84.984156
2126.000000, 84.046112
2127.000000, 83.215221
2128.000000, 82.309946
2129.000000, 81.479311
2130.000000, 80.746459
2131.000000, 80.096615
2132.000000, 79.542878
2133.000000, 79.011446
2134.000000, 78.627897
2135.000000, 78.347353
2136.000000, 78.168815
2137.000000, 78.097473
2138.000000, 78.149802
2139.000000, 78.286850
2140.000000, 78.528796
2141.000000, 78.877759
2142.000000, 79.316313
2143.000000, 79.845587
2144.000000, 80.448265
2145.000000, 81.127281
2146.000000, 81.852677
2147.000000, 82.610510
2148.000000, 83.369072
2149.000000, 84.164880
2150.000000, 84.889215
2151.000000, 85.616836
2152.000000, 86.317799
2153.000000, 86.925758
2154.000000, 87.427872
2155.000000, 87.872877
2156.000000, 88.193404
2157.000000, 88.398434
2158.000000, 88.524590
2159.000000, 88.489944
2160.000000, 88.336275
2161.000000, 88.064931
2162.000000, 87.748928
2163.000000, 87.327659
2164.000000, 86.877192
2165.000000, 86.258115
2166.000000, 85.666577
2167.000000, 85.078014
2168.000000, 84.482843
2169.000000, 83.887247
2170.000000, 83.339198
2171.000000, 82.762225
2172.000000, 82.253626
2173.000000, 81.794825
2174.000000, 81.454782
2175.000000, 81.168557
2176.000000, 80.884894
2177.000000, 80.710212
2178.000000, 80.619296
2179.000000, 80.622225
2180.000000, 80.660169
2181.000000, 80.811953
2182.000000, 80.996943
2183.000000, 81.213359
2184.000000, 81.497021
2185.000000, 81.823564
2186.000000, 82.170194
2187.000000, 82.542085
2188.000000, 82.955565
2189.000000, 83.300223
2190.000000, 83.690887
2191.000000, 84.047832
2192.000000, 84.350780
2193.000000, 84.571078
2194.000000, 84.746642
2195.000000, 84.856452
2196.000000, 84.885684
2197.000000, 84.739988
2198.000000, 84.509678
2199.000000, 84.181180
2200.000000, 83.740047
2200.900000, 83.350465
2201.710000, 82.960884
2202.510000, 82.568102
2203.320000, 82.187820
2204.120000, 81.831139
2204.920000, 81.485757
2205.730000, 81.167775
2206.530000, 80.884694
2207.330000, 80.627512
2208.140000, 80.398530
2208.940000, 80.200249
2209.740000, 80.044067
2210.550000, 79.925385
2211.350000, 79.835804
2212.150000, 79.784422
2212.960000, 79.775040
2213.760000, 79.799959
2214.560000, 79.854677
2215.370000, 79.929195
2216.170000, 80.023314
2216.980000, 80.156032
2217.780000, 80.319950
2218.580000, 80.485969
2219.390000, 80.665787
2220.190000, 80.883305
2220.990000, 81.093924
2221.800000, 81.297942
2222.600000, 81.500060
2223.400000, 81.682179
2224.210000, 81.853597
2225.010000, 82.008515
2225.810000, 82.151534
2226.620000, 82.273952
2227.420000, 82.368570
2228.220000, 82.434588
2229.030000, 82.473307
2229.830000, 82.472525
2230.640000, 82.437943
2231.440000, 82.383062
2232.240000, 82.298080
2233.050000, 82.171898
2233.850000, 82.002917
2234.650000, 81.808635
2235.460000, 81.586953
2236.260000, 81.341272
2237.060000, 81.069790
2237.870000, 80.755708
2238.670000, 80.430727
2239.470000, 80.114145
2240.280000, 79.808563
2241.080000, 79.502982
2241.890000, 79.190200
2242.690000, 78.878118
2243.490000, 78.579037
2244.300000, 78.295055
2245.100000, 78.031873
2245.900000, 77.810192
2246.710000, 77.618010
2247.510000, 77.450028
2248.310000, 77.320347
2249.120000, 77.222565
2249.920000, 77.159983
2250.720000, 77.150702
2251.530000, 77.194020
2252.330000, 77.268438
2253.130000, 77.383157
2253.940000, 77.551475
2254.740000, 77.769893
2255.550000, 78.031812
2256.350000, 78.351830
2257.150000, 78.719448
2257.960000, 79.121467
2258.760000, 79.573285
2259.560000, 80.066703
2260.370000, 80.582622
2261.170000, 81.127140
2261.970000, 81.711758
2262.780000, 82.335277
2263.580000, 82.974795
2264.380000, 83.628613
2265.190000, 84.297932
2265.990000, 84.969550
2266.800000, 85.646568
2267.600000, 86.312087
2268.400000, 86.955405
2269.210000, 87.578123
2270.010000, 88.190341
2270.810000, 88.788060
2271.620000, 89.337778
2272.420000, 89.836796
2273.220000, 90.293815
2274.030000, 90.708633
2274.830000, 91.066551
2275.630000, 91.359170
2276.440000, 91.596488
2277.240000, 91.763106
2278.040000, 91.855725
2278.850000, 91.903543
2279.650000, 91.894861
2280.460000, 91.822480
2281.260000, 91.689298
2282.060000, 91.506316
2282.870000, 91.289535
2283.670000, 91.017253
2284.470000, 90.698971
2285.280000, 90.355390
2286.080000, 89.984008
2286.880000, 89.594726
2287.690000, 89.195745
2288.490000, 88.785763
2289.290000, 88.374981
2290.100000, 87.955900
2290.900000, 87.537118
2291.700000, 87.151736
2292.510000, 86.795455
2293.310000, 86.461873
2294.120000, 86.158291
2294.920000, 85.880410
2295.720000, 85.646028
2296.530000, 85.461146
2297.330000, 85.308165
2298.130000, 85.184983
2298.940000, 85.124801
2299.740000, 85.127620
2300.540000, 85.164538
2301.350000, 85.235756
2302.150000, 85.348475
2302.950000, 85.521893
2303.760000, 85.747911
2304.560000, 86.016930
2305.370000, 86.313148
2306.170000, 86.643666
2306.970000, 87.019385
2307.780000, 87.412603
2308.580000, 87.828821
2309.380000, 88.266339
2310.190000, 88.714658
2310.990000, 89.172976
2311.790000, 89.636794
2312.600000, 90.098113
2313.400000, 90.549831
2314.200000, 90.982949
2315.010000, 91.396068
2315.810000, 91.783386
2316.610000, 92.132504
2317.420000, 92.438823
2318.220000, 92.699841
2319.030000, 92.909259
2319.830000, 93.057778
2320.630000, 93.141396
2321.440000, 93.149814
2322.240000, 93.102333
2323.040000, 92.976951
2323.850000, 92.791269
2324.650000, 92.539188
2325.450000, 92.224006
2326.260000, 91.851124
2327.060000, 91.403843
2327.860000, 90.897961
2328.670000, 90.351179
2329.470000, 89.762498
2330.270000, 89.117016
2331.080000, 88.440734
2331.880000, 87.737853
2332.690000, 87.010071
2333.490000, 86.268489
2334.290000, 85.523108
2335.100000, 84.768326
2335.900000, 84.022044
2336.700000, 83.300963
2337.510000, 82.595181
2338.310000, 81.907999
2339.110000, 81.247018
2339.920000, 80.617836
2340.720000, 80.036154
2341.520000, 79.502573
2342.330000, 79.012091
2343.130000, 78.560909
2343.940000, 78.168428
2344.740000, 77.824346
2345.540000, 77.540664
2346.350000, 77.314683
2347.150000, 77.146101
2347.950000, 77.030519
2348.760000, 77.003137
2349.560000, 77.032856
2350.360000, 77.120474
2351.170000, 77.262392
2351.970000, 77.472211
2352.770000, 77.739129
2353.580000, 78.066147
2354.380000, 78.444566
2355.180000, 78.892784
2355.990000, 79.393302
2356.790000, 79.951021
2357.600000, 80.558239
2358.400000, 81.218657
2359.200000, 81.917476
2360.010000, 82.658594
2360.810000, 83.436112
2361.610000, 84.215426
2362.420000, 85.017539
2363.220000, 85.836553
2364.020000, 86.661166
2364.830000, 87.499479
2365.630000, 88.336993
2366.430000, 89.162306
2367.240000, 89.983419
2368.040000, 90.775533
2368.850000, 91.530346
2369.650000, 92.239760
2370.450000, 92.909973
2371.260000, 93.533386
2372.060000, 94.096800
2372.860000, 94.577713
2373.670000, 94.993627
2374.470000, 95.343240
2375.270000, 95.613653
2376.080000, 95.790067
2376.880000, 95.885180
2377.680000, 95.901593
2378.490000, 95.826907
2379.290000, 95.667520
2380.090000, 95.428534
2380.900000, 95.110147
2381.700000, 94.706660
2382.510000, 94.254574
2383.310000, 93.741887
2384.110000, 93.171300
2384.920000, 92.549114
2385.720000, 91.898727
2386.520000, 91.201241
2387.330000, 90.473454
2388.130000, 89.735167
2388.930000, 88.988381
2389.740000, 88.242594
2390.540000, 87.503708
2391.340000, 86.772421
2392.150000, 86.063734
2392.950000, 85.380448
2393.750000, 84.729661
2394.560000, 84.115174
2395.360000, 83.533188
2396.170000, 82.982301
2396.970000, 82.485215
2397.770000, 82.034528
2398.580000, 81.636241
2399.380000, 81.291055
2400.180000, 80.993568
2400.990000, 80.762481
2401.790000, 80.587995
2402.590000, 80.470808
2403.400000, 80.401022
2404.200000, 80.391435
2405.000000, 80.433648
2405.810000, 80.529562
2406.610000, 80.687875
2407.420000, 80.909989
2408.220000, 81.180202
2409.020000, 81.491115
2409.830000, 81.865529
2410.630000, 82.282742
2411.430000, 82.741655
2412.240000, 83.242169
2413.040000, 83.778182
2413.840000, 84.345696
2414.650000, 84.937509
2415.450000, 85.557622
2416.250000, 86.203236
2417.060000, 86.860049
2417.860000, 87.519563
2418.660000, 88.186176
2419.470000, 88.852989
2420.270000, 89.517603
2421.080000, 90.173816
2421.880000, 90.806929
2422.680000, 91.405543
2423.490000, 91.969356
2424.290000, 92.500370
2425.090000, 92.993883
2425.900000, 93.443596
2426.700000, 93.828210
2427.500000, 94.158223
2428.310000, 94.433536
2429.110000, 94.644650
2429.910000, 94.790063
2430.720000, 94.854677
2431.520000, 94.864290
2432.320000, 94.818203
2433.130000, 94.704617
2433.930000, 94.519930
2434.740000, 94.268144
2435.540000, 93.963857
2436.340000, 93.588570
2437.150000, 93.163084
2437.950000, 92.706097
2438.750000, 92.207710
2439.560000, 91.674324
2440.360000, 91.108437
2441.160000, 90.521151
2441.970000, 89.916264
2442.770000, 89.303377
2443.570000, 88.687591
2444.380000, 88.061004
2445.180000, 87.437818
2445.990000, 86.830831
2446.790000, 86.232744
2447.590000, 85.645258
2448.400000, 85.086571
2449.200000, 84.562584
2450.000000, 84.067098
2450.810000, 83.612511
2451.610000, 83.188825
2452.410000, 82.793238
2453.220000, 82.442751
2454.020000, 82.137165
2454.820000, 81.880078
2455.630000, 81.666291
2456.430000, 81.499905
2457.230000, 81.385118
2458.040000, 81.312432
2458.840000, 81.283245
2459.650000, 81.297158
2460.450000, 81.361372
2461.250000, 81.486185
2462.060000, 81.654299
2462.860000, 81.863812
2463.660000, 82.116225
2464.470000, 82.406639
2465.270000, 82.732452
2466.070000, 83.096065
2466.880000, 83.503879
2467.680000, 83.958492
2468.480000, 84.439506
2469.290000, 84.937419
2470.090000, 85.467032
2470.890000, 86.019946
2471.700000, 86.597259
2472.500000, 87.196772
2473.310000, 87.782886
2474.110000, 88.361099
2474.910000, 88.957013
2475.720000, 89.562926
2476.520000, 90.171439
2477.320000, 90.777053
2478.130000, 91.365166
2478.930000, 91.923180
2479.730000, 92.455793
2480.540000, 92.961606
2481.340000, 93.439620
2482.140000, 93.890733
2482.950000, 94.308146
2483.750000, 94.696460
2484.560000, 95.037573
2485.360000, 95.300087
2486.160000, 95.520300
2486.970000, 95.721913
2487.770000, 95.877827
2488.570000, 95.971340
2489.380000, 96.015154
2490.180000, 96.010567
2490.980000, 95.957480
2491.790000, 95.869394
2492.590000, 95.745807
2493.390000, 95.583320
2494.200000, 95.393134
2495.000000, 95.150947
2495.800000, 94.864261
2496.610000, 94.564374
2497.410000, 94.246587
2498.220000, 93.909401
2499.020000, 93.563814
2499.820000, 93.205027
2500.630000, 92.839241
2501.430000, 92.484754
2502.230000, 92.149568
2503.040000, 91.802481
2503.840000, 91.428294
2504.640000, 91.079808
2505.450000, 90.776121
2506.250000, 90.474335
2507.050000, 90.158548
2507.860000, 89.870261
2508.660000, 89.624975
2509.470000, 89.422188
2510.270000, 89.246001
2511.070000, 89.083415
2511.880000, 88.935828
2512.680000, 88.819942
2513.480000, 88.743255
2514.290000, 88.719468
2515.090000, 88.730782
2515.890000, 88.745495
2516.700000, 88.775209
2517.500000, 88.835622
2518.300000, 88.922035
2519.110000, 89.048649
2519.910000, 89.193962
2520.710000, 89.335875
2521.520000, 89.511189
2522.320000, 89.736202
2523.130000, 89.991416
2523.930000, 90.278429
2524.730000, 90.543042
2525.540000, 90.776156
2526.340000, 91.028669
2527.140000, 91.304482
2527.950000, 91.572996
2528.750000, 91.837409
2529.550000, 92.109623
2530.360000, 92.381336
2531.160000, 92.675049
2531.960000, 92.971463
2532.770000, 93.182976
2533.570000, 93.319290
2534.370000, 93.419003
2535.180000, 93.572716
2535.980000, 93.760330
2536.790000, 93.834443
2537.590000, 93.790156
2538.390000, 93.762170
2539.200000, 93.734283
2540.000000, 93.663797
2540.800000, 93.582010
2541.610000, 93.522923
2542.410000, 93.458637
2543.210000, 93.300050
2544.020000, 93.032763
2544.820000, 92.712877
2545.620000, 92.331790
2546.430000, 91.994804
2547.230000, 91.751117
2548.040000, 91.447930
2548.840000, 90.948544
2549.640000, 90.460657
2550.450000, 90.053471
2551.250000, 89.600084
2552.050000, 89.156397
2552.860000, 88.707111
2553.660000, 88.102624
2554.460000, 87.508537
2555.270000, 87.010651
2556.070000, 86.525164
2556.870000, 86.048778
2557.680000, 85.595891
2558.480000, 85.190004
2559.280000, 84.884318
2560.090000, 84.683631
2560.890000, 84.440845
2561.700000, 84.056158
2562.500000, 83.638171
2563.300000, 83.234485
2564.110000, 82.918598
2564.910000, 82.569111
2565.710000, 82.160025
2566.520000, 81.862838
2567.320000, 81.702852
2568.120000, 81.643065
2568.930000, 81.657178
2569.730000, 81.613092
2570.530000, 81.402805
2571.340000, 81.252418
2572.140000, 81.263332
2572.940000, 81.423045
2573.750000, 81.603559
2574.550000, 81.683572
2575.360000, 81.750385
2576.160000, 81.926899
2576.960000, 82.183312
2577.770000, 82.347726
2578.570000, 82.447939
2579.370000, 82.663452
2580.180000, 83.000366
2580.980000, 83.472479
2581.780000, 83.929392
2582.590000, 84.237906
2583.390000, 84.688119
2584.190000, 85.295833
2585.000000, 85.597446
2585.800000, 85.765759
2586.610000, 86.154973
2587.410000, 86.792486
2588.210000, 87.329700
2589.020000, 87.631713
2589.820000, 87.942326
2590.620000, 88.234540
2591.430000, 88.566053
2592.230000, 89.054666
2593.030000, 89.589280
2593.840000, 90.052493
2594.640000, 90.667907
2595.440000, 91.396520
2596.250000, 91.488433
2597.050000, 91.434947
2597.850000, 91.461560
2598.660000, 91.535573
2599.460000, 91.668087
2600.270000, 91.872300
2601.070000, 92.131314
2601.870000, 92.351627
2602.680000, 92.475740
2603.480000, 92.658154
2604.280000, 92.859767
2605.090000, 92.907681
2605.890000, 92.729594
2606.690000, 92.504807
2607.500000, 92.271921
2608.300000, 91.993334
2609.100000, 91.796747
2609.910000, 91.576961
2610.710000, 91.254474
2611.520000, 91.009288
2612.320000, 90.874401
2613.120000, 90.675614
2613.930000, 90.349528
2614.730000, 90.076041
2615.530000, 89.951354
2616.340000, 89.952068
2617.140000, 89.758081
2617.940000, 89.203195
2618.750000, 88.787108
2619.550000, 88.598921
2620.350000, 88.373135
2621.160000, 87.865748
2621.960000, 87.420162
2622.760000, 87.128675
2623.570000, 86.894888
2624.370000, 86.717702
2625.180000, 86.632915
2625.980000, 86.652628
2626.780000, 86.630842
2627.590000, 86.409355
2628.390000, 86.280069
2629.190000, 86.359182
2630.000000, 86.576295
2630.800000, 86.615709
2631.600000, 86.382522
2632.410000, 86.302136
2633.210000, 86.381949
2634.010000, 86.472162
2634.820000, 86.452176
2635.620000, 86.442389
2636.420000, 86.543802
2637.230000, 86.718416
2638.030000, 86.930529
2638.840000, 87.167643
2639.640000, 87.428556
2640.440000, 87.727869
2641.250000, 88.083883
2642.050000, 88.465096
2642.850000, 88.770409
2643.660000, 89.011423
2644.460000, 89.320436
2645.260000, 89.746350
2646.070000, 90.223363
2646.870000, 90.547876
2647.670000, 90.745790
2648.480000, 90.998003
2649.280000, 91.315817
2650.090000, 91.663130
2650.890000, 92.032943
2651.690000, 92.454257
2652.500000, 92.927670
2653.300000, 93.235883
2654.100000, 93.390697
2654.910000, 93.608410
2655.710000, 93.872524
2656.510000, 94.008937
2657.320000, 94.074550
2658.120000, 94.193664
2658.920000, 94.392577
2659.730000, 94.624591
2660.530000, 94.709104
2661.330000, 94.654217
2662.140000, 94.590131
2662.940000, 94.533344
2663.750000, 94.560857
2664.550000, 94.714971
2665.350000, 94.897184
2666.160000, 94.822898
2666.960000, 94.433811
2667.760000, 93.893724
2668.570000, 93.529238
2669.370000, 93.365451
2670.170000, 93.155964
2670.980000, 92.417878
2671.780000, 91.852591
2672.580000, 91.552105
2673.390000, 91.223818
2674.190000, 90.904831
2674.990000, 90.677345
2675.800000, 90.533258
2676.600000, 90.357372
2677.410000, 89.817285
2678.210000, 89.074998
2679.010000, 88.468012
2679.820000, 87.802725
2680.620000, 87.173938
2681.420000, 86.724452
2682.230000, 86.390065
2683.030000, 86.066979
2683.830000, 85.592292
2684.640000, 85.005205
2685.440000, 84.525919
2686.240000, 84.050032
2687.050000, 83.409745
2687.850000, 82.810659
2688.660000, 82.298372
2689.460000, 81.727986
2690.260000, 81.192799
2691.070000, 80.794512
2691.870000, 80.491026
2692.670000, 80.317239
2693.480000, 80.258753
2694.280000, 80.143366
2695.080000, 79.891279
2695.890000, 79.533093
2696.690000, 79.123106
2697.490000, 78.834919
2698.300000, 78.662933
2699.100000, 78.540046
2699.900000, 78.469560
2700.710000, 78.450173
2701.510000, 78.382286
2702.320000, 78.265000
2703.120000, 78.213113
2703.920000, 78.225927
2704.730000, 78.285040
2705.530000, 78.370753
2706.330000, 78.466567
2707.140000, 78.596680
2707.940000, 78.806993
2708.740000, 79.121307
2709.550000, 79.462820
2710.350000, 79.687134
2711.150000, 79.812747
2711.960000, 79.847760
2712.760000, 79.837774
2713.570000, 79.897587
2714.370000, 80.027200
2715.170000, 80.186114
2715.980000, 80.374327
2716.780000, 80.616341
2717.580000, 80.904054
2718.390000, 81.174067
2719.190000, 81.418881
2719.990000, 81.759094
2720.800000, 82.087708
2721.600000, 82.009021
2722.400000, 81.834034
2723.210000, 81.851748
2724.010000, 82.040661
2724.810000, 82.214974
2725.620000, 82.039888
2726.420000, 81.702501
2727.230000, 81.458815
2728.030000, 81.286728
2728.830000, 81.125141
2729.640000, 80.950255
2730.440000, 80.765968
2731.240000, 80.577482
2732.050000, 80.369695
2732.850000, 80.139408
2733.650000, 79.942422
2734.460000, 79.742135
2735.260000, 79.371248
2736.060000, 78.890362
2736.870000, 78.527775
2737.670000, 78.316189
2738.470000, 78.227802
2739.280000, 78.157515
2740.080000, 77.792329
2740.890000, 77.216442
2741.690000, 76.525055
2742.490000, 75.753869
2743.300000, 75.139182
2744.100000, 74.700996
2744.900000, 74.318909
2745.710000, 73.899422
2746.510000, 73.444936
2747.310000, 73.037849
2748.120000, 72.679963
2748.920000, 72.308776
2749.720000, 71.935589
2750.530000, 71.631303
2751.330000, 71.380516
2752.140000, 71.088529
2752.940000, 70.785843
2753.740000, 70.605356
2754.550000, 70.566670
2755.350000, 70.471483
2756.150000, 70.037596
2756.960000, 69.630310
2757.760000, 69.370223
2758.560000, 69.146136
2759.370000, 68.963250
2760.170000, 68.842263
2760.970000, 68.778677
2761.780000, 68.759990
2762.580000, 68.762303
2763.380000, 68.750017
2764.190000, 68.688030
2764.990000, 68.628144
2765.800000, 68.647157
2766.600000, 68.744370
2767.400000, 68.864484
2768.210000, 68.966897
2769.010000, 69.065410
2769.810000, 69.230324
2770.620000, 69.524837
2771.420000, 69.886151
2772.220000, 70.182864
2773.030000, 70.394777
2773.830000, 70.593091
2774.630000, 70.855204
2775.440000, 71.211618
2776.240000, 71.647631
2777.040000, 72.127644
2777.850000, 72.588958
2778.650000, 72.994871
2779.460000, 73.373284
2780.260000, 73.785298
2781.060000, 74.294611
2781.870000, 74.849825
2782.670000, 75.332638
2783.470000, 75.758051
2784.280000, 76.161365
2785.080000, 76.575678
2785.880000, 77.075691
2786.690000, 77.726505
2787.490000, 78.455018
2788.290000, 79.040132
2789.100000, 79.420845
2789.900000, 79.755758
2790.710000, 80.154072
2791.510000, 80.591485
2792.310000, 81.031099
2793.120000, 81.488512
2793.920000, 81.944625
2794.720000, 82.372839
2795.530000, 82.799152
2796.330000, 83.221365
2797.130000, 83.617779
2797.940000, 83.980492
2798.740000, 84.301606
2799.540000, 84.601319
2800.350000, 84.916932
2801.150000, 85.257746
2801.950000, 85.637959
2802.760000, 86.077173
2803.560000, 86.457886
2804.370000, 86.583999
2805.170000, 86.537013
2805.970000, 86.502026
2806.780000, 86.516839
2807.580000, 86.547553
2808.380000, 86.569666
2809.190000, 86.554480
2809.990000, 86.499893
2810.790000, 86.435006
2811.600000, 86.366320
2812.400000, 86.294133
2813.200000, 86.237646
2814.010000, 86.198960
2814.810000, 86.130273
2815.610000, 85.980487
2816.420000, 85.783300
2817.220000, 85.615713
2818.030000, 85.502127
2818.830000, 85.410540
2819.630000, 85.300654
2820.440000, 85.153667
2821.240000, 84.951580
2822.040000, 84.694594
2822.850000, 84.425407
2823.650000, 84.181420
2824.450000, 83.975034
2825.260000, 83.803047
2826.060000, 83.665661
2826.860000, 83.560274
2827.670000, 83.450587
2828.470000, 83.299201
2829.280000, 83.131914
2830.080000, 82.998527
2830.880000, 82.911941
2831.690000, 82.861454
2832.490000, 82.836268
2833.290000, 82.831581
2834.100000, 82.836394
2834.900000, 82.828608
2835.700000, 82.804321
2836.510000, 82.797335
2837.310000, 82.836048
2838.110000, 82.892961
2838.920000, 82.911675
2839.720000, 82.901888
2840.520000, 82.924701
2841.330000, 83.001215
2842.130000, 83.107328
2842.940000, 83.222542
2843.740000, 83.348455
2844.540000, 83.494368
2845.350000, 83.665982
2846.150000, 83.858295
2846.950000, 84.061009
2847.760000, 84.272122
2848.560000, 84.497835
2849.360000, 84.730349
2850.170000, 84.939062
2850.970000, 85.120475
2851.770000, 85.318689
2852.580000, 85.566602
2853.380000, 85.859316
2854.190000, 86.163929
2854.990000, 86.428142
2855.790000, 86.620956
2856.600000, 86.772069
2857.400000, 86.931282
2858.200000, 87.120696
2859.010000, 87.336409
2859.810000, 87.557523
2860.610000, 87.754036
2861.420000, 87.915149
2862.220000, 88.057763
2863.020000, 88.197876
2863.830000, 88.333990
2864.630000, 88.459803
2865.430000, 88.578316
2866.240000, 88.692130
2867.040000, 88.783843
2867.850000, 88.835956
2868.650000, 88.856670
2869.450000, 88.863783
2870.260000, 88.872297
2871.060000, 88.885610
2871.860000, 88.878423
2872.670000, 88.819137
2873.470000, 88.710150
2874.270000, 88.576163
2875.080000, 88.436677
2875.880000, 88.300990
2876.680000, 88.167304
2877.490000, 88.017717
2878.290000, 87.831530
2879.090000, 87.615844
2879.900000, 87.393557
2880.700000, 87.169471
2881.510000, 86.934284
2882.310000, 86.689397
2883.110000, 86.444111
2883.920000, 86.191324
2884.720000, 85.915137
2885.520000, 85.623851
2886.330000, 85.341064
2887.130000, 85.069478
2887.930000, 84.788391
2888.740000, 84.485904
2889.540000, 84.173818
2890.340000, 83.867231
2891.150000, 83.567645
2891.950000, 83.273858
2892.760000, 82.988671
2893.560000, 82.712985
2894.360000, 82.444398
2895.170000, 82.181511
2895.970000, 81.924425
2896.770000, 81.676038
2897.580000, 81.442152
2898.380000, 81.229965
2899.180000, 81.050178
2899.990000, 80.900592
2900.790000, 80.743505
2901.590000, 80.547718
2902.400000, 80.343932
2903.200000, 80.175945
2904.000000, 80.047459
2904.810000, 79.934772
2905.610000, 79.822585
2906.420000, 79.718999
2907.220000, 79.637612
2908.020000, 79.581126
2908.830000, 79.544039
2909.630000, 79.519952
2910.430000, 79.505966
2911.240000, 79.503879
2912.040000, 79.515592
2912.840000, 79.543206
2913.650000, 79.588219
2914.450000, 79.647933
2915.250000, 79.716446
2916.060000, 79.792859
2916.860000, 79.879373
2917.660000, 79.973686
2918.470000, 80.074200
2919.270000, 80.186513
2920.080000, 80.318026
2920.880000, 80.471740
2921.680000, 80.645453
2922.490000, 80.831566
2923.290000, 81.013080
2924.090000, 81.172793
2924.900000, 81.312007
2925.700000, 81.450820
2926.500000, 81.603033
2927.310000, 81.766947
2928.110000, 81.938460
2928.910000, 82.115373
2929.720000, 82.292087
2930.520000, 82.462900
2931.330000, 82.626714
2932.130000, 82.783827
2932.930000, 82.930440
2933.740000, 83.063454
2934.540000, 83.185567
2935.340000, 83.302781
2936.150000, 83.416394
2936.950000, 83.521607
2937.750000, 83.614821
2938.560000, 83.693834
2939.360000, 83.755447
2940.160000, 83.796461
2940.970000, 83.818774
2941.770000, 83.829188
2942.570000, 83.832201
2943.380000, 83.822714
2944.180000, 83.792028
2944.990000, 83.739841
2945.790000, 83.674754
2946.590000, 83.602368
2947.400000, 83.515181
2948.200000, 83.401495
2949.000000, 83.259908
2949.810000, 83.099521
2950.610000, 82.927735
2951.410000, 82.747348
2952.220000, 82.559662
2953.020000, 82.363375
2953.820000, 82.153388
2954.630000, 81.925302
2955.430000, 81.682115
2956.240000, 81.430128
2957.040000, 81.172442
2957.840000, 80.907655
2958.650000, 80.635169
2959.450000, 80.357582
2960.250000, 80.078095
2961.060000, 79.798109
2961.860000, 79.516722
2962.660000, 79.232536
2963.470000, 78.944949
2964.270000, 78.656362
2965.070000, 78.370976
2965.880000, 78.091789
2966.680000, 77.819002
2967.480000, 77.551616
2968.290000, 77.290429
2969.090000, 77.036843
2969.900000, 76.789056
2970.700000, 76.541769
2971.500000, 76.290983
2972.310000, 76.043996
2973.110000, 75.815709
2973.910000, 75.611223
2974.720000, 75.421636
2975.520000, 75.238550
2976.320000, 75.062363
2977.130000, 74.898676
2977.930000, 74.751690
2978.730000, 74.620903
2979.540000, 74.501917
2980.340000, 74.392230
2981.140000, 74.296343
2981.950000, 74.220557
2982.750000, 74.165770
2983.560000, 74.128883
2984.360000, 74.106497
2985.160000, 74.095610
2985.970000, 74.096724
2986.770000, 74.112537
2987.570000, 74.145450
2988.380000, 74.195564
2989.180000, 74.262077
2989.980000, 74.345091
2990.790000, 74.444704
2991.590000, 74.559817
2992.390000, 74.689331
2993.200000, 74.832944
2994.000000, 74.990257
2994.810000, 75.161171
2995.610000, 75.347684
2996.410000, 75.549098
2997.220000, 75.757611
2998.020000, 75.967824
2998.820000, 76.184338
2999.630000, 76.413951
3000.430000, 76.658664
3001.230000, 76.916778
3002.040000, 77.185091
3002.840000, 77.460105
3003.640000, 77.740918
3004.450000, 78.030931
3005.250000, 78.333345
3006.050000, 78.643858
3006.860000, 78.949972
3007.660000, 79.246185
3008.470000, 79.537298
3009.270000, 79.829412
3010.070000, 80.125325
3010.880000, 80.424838
3011.680000, 80.725752
3012.480000, 81.024065
3013.290000, 81.315479
3014.090000, 81.597292
3014.890000, 81.869805
3015.700000, 82.135819
3016.500000, 82.398232
3017.300000, 82.656945
3018.110000, 82.907859
3018.910000, 83.145872
3019.710000, 83.369186
3020.520000, 83.579499
3021.320000, 83.777912
3022.130000, 83.961426
3022.930000, 84.123139
3023.730000, 84.258553
3024.540000, 84.372166
3025.340000, 84.472679
3026.140000, 84.561093
3026.950000, 84.633606
3027.750000, 84.689019
3028.550000, 84.729633
3029.360000, 84.757146
3030.160000, 84.771560
3030.960000, 84.772073
3031.770000, 84.756086
3032.570000, 84.719600
3033.380000, 84.659313
3034.180000, 84.577827
3034.980000, 84.484240
3035.790000, 84.384553
3036.590000, 84.277567
3037.390000, 84.158280
3038.200000, 84.020893
3039.000000, 83.864807
3039.800000, 83.694720
3040.610000, 83.516234
3041.410000, 83.331347
3042.210000, 83.140260
3043.020000, 82.944474
3043.820000, 82.746587
3044.620000, 82.546400
3045.430000, 82.342814
3046.230000, 82.136927
3047.040000, 81.930841
3047.840000, 81.724254
3048.640000, 81.514067
3049.450000, 81.300681
3050.250000, 81.095894
3051.050000, 80.907108
3051.860000, 80.721521
3052.660000, 80.534034
3053.460000, 80.350148
3054.270000, 80.172861
3055.070000, 79.999974
3055.870000, 79.828788
3056.680000, 79.661301
3057.480000, 79.500615
3058.280000, 79.349628
3059.090000, 79.210741
3059.890000, 79.086555
3060.700000, 78.977568
3061.500000, 78.882482
3062.300000, 78.799095
3063.110000, 78.725808
3063.910000, 78.662022
3064.710000, 78.609435
3065.520000, 78.575048
3066.320000, 78.560762
3067.120000, 78.561675
3067.930000, 78.572789
3068.730000, 78.593602
3069.530000, 78.626415
3070.340000, 78.673929
3071.140000, 78.737142
3071.950000, 78.816655
3072.750000, 78.908869
3073.550000, 79.005782
3074.360000, 79.109996
3075.160000, 79.227209
3075.960000, 79.359922
3076.770000, 79.506936
3077.570000, 79.666249
3078.370000, 79.838563
3079.180000, 80.027376
3079.980000, 80.232089
3080.780000, 80.448303
3081.590000, 80.667316
3082.390000, 80.882529
3083.190000, 81.095043
3084.000000, 81.312556
3084.800000, 81.541370
3085.610000, 81.779983
3086.410000, 82.025596
3087.210000, 82.277210
3088.020000, 82.534823
3088.820000, 82.797536
3089.620000, 83.062150
3090.430000, 83.324363
3091.230000, 83.581377
3092.030000, 83.835790
3092.840000, 84.088303
3093.640000, 84.334617
3094.440000, 84.574030
3095.250000, 84.808144
3096.050000, 85.037057
3096.860000, 85.257670
3097.660000, 85.467384
3098.460000, 85.667097
3099.270000, 85.857410
3100.070000, 86.035124
3100.870000, 86.199637
3101.680000, 86.352351
3102.480000, 86.494864
3103.280000, 86.626577
3104.090000, 86.743791
3104.890000, 86.843704
3105.690000, 86.924918
3106.500000, 86.983631
3107.300000, 87.020944
3108.100000, 87.042158
3108.910000, 87.053271
3109.710000, 87.055384
3110.520000, 87.037998
3111.320000, 86.994111
3112.120000, 86.923925
3112.930000, 86.835738
3113.730000, 86.737451
3114.530000, 86.631165
3115.340000, 86.508578
3116.140000, 86.356691
3116.940000, 86.186005
3117.750000, 86.003118
3118.550000, 85.808232
3119.350000, 85.599245
3120.160000, 85.374858
3120.960000, 85.136972
3121.760000, 84.887885
3122.570000, 84.630299
3123.370000, 84.363412
3124.180000, 84.088625
3124.980000, 83.808239
3125.780000, 83.524152
3126.590000, 83.234365
3127.390000, 82.931779
3128.190000, 82.620492
3129.000000, 82.304406
3129.800000, 81.985619
3130.600000, 81.665432
3131.410000, 81.345946
3132.210000, 81.029959
3133.010000, 80.718173
3133.820000, 80.409686
3134.620000, 80.104599
3135.430000, 79.802713
3136.230000, 79.504526
3137.030000, 79.211739
3137.840000, 78.930453
3138.640000, 78.659466
3139.440000, 78.393880
3140.250000, 78.132493
3141.050000, 77.877206
3141.850000, 77.631220
3142.660000, 77.396233
3143.460000, 77.173146
3144.260000, 76.964460
3145.070000, 76.771373
3145.870000, 76.590987
3146.670000, 76.418700
3147.480000, 76.251813
3148.280000, 76.097527
3149.090000, 75.956740
3149.890000, 75.829954
3150.690000, 75.718667
3151.500000, 75.624080
3152.300000, 75.545994
3153.100000, 75.483107
3153.910000, 75.432520
3154.710000, 75.396334
3155.510000, 75.375947
3156.320000, 75.370661
3157.120000, 75.378074
3157.920000, 75.397587
3158.730000, 75.431201
3159.530000, 75.480114
3160.330000, 75.544227
3161.140000, 75.622641
3161.940000, 75.713854
3162.750000, 75.818968
3163.550000, 75.938081
3164.350000, 76.069394
3165.160000, 76.212808
3165.960000, 76.368621
3166.760000, 76.537235
3167.570000, 76.720648
3168.370000, 76.917061
3169.170000, 77.123975
3169.980000, 77.340388
3170.780000, 77.565001
3171.580000, 77.796515
3172.390000, 78.034628
3173.190000, 78.277842
3174.000000, 78.526155
3174.800000, 78.780068
3175.600000, 79.040382
3176.410000, 79.308195
3177.210000, 79.585309
3178.010000, 79.867222
3178.820000, 80.151435
3179.620000, 80.436849
3180.420000, 80.722562
3181.230000, 81.008375
3182.030000, 81.294589
3182.830000, 81.582102
3183.640000, 81.870116
3184.440000, 82.155929
3185.240000, 82.435842
3186.050000, 82.705356
3186.850000, 82.966669
3187.660000, 83.221982
3188.460000, 83.471596
3189.260000, 83.715509
3190.070000, 83.954223
3190.870000, 84.185236
3191.670000, 84.402149
3192.480000, 84.599363
3193.280000, 84.776376
3194.080000, 84.937290
3194.890000, 85.088503
3195.690000, 85.231816
3196.490000, 85.365830
3197.300000, 85.487643
3198.100000, 85.593956
3198.910000, 85.679970
3199.710000, 85.742383
3200.510000, 85.792297
3201.320000, 85.830610
3202.120000, 85.854323
3202.920000, 85.857637
3203.730000, 85.832750
3204.530000, 85.793164
3205.330000, 85.742077
3206.140000, 85.677690
3206.940000, 85.597004
3207.740000, 85.497617
3208.550000, 85.381230
3209.350000, 85.245444
3210.150000, 85.088657
3210.960000, 84.912571
3211.760000, 84.723484
3212.570000, 84.525497
3213.370000, 84.319211
3214.170000, 84.104724
3214.980000, 83.882637
3215.780000, 83.653951
3216.580000, 83.416064
3217.390000, 83.167678
3218.190000, 82.907891
3218.990000, 82.637704
3219.800000, 82.361018
3220.600000, 82.085131
3221.400000, 81.811445
3222.210000, 81.537758
3223.010000, 81.262271
3223.810000, 80.983085
3224.620000, 80.696298
3225.420000, 80.403111
3226.230000, 80.107625
3227.030000, 79.814638
3227.830000, 79.529452
3228.640000, 79.257865
3229.440000, 78.991078
3230.240000, 78.724592
3231.050000, 78.457905
3231.850000, 78.193018
3232.650000, 77.936632
3233.460000, 77.689945
3234.260000, 77.453459
3235.060000, 77.226972
3235.870000, 77.009585
3236.670000, 76.802799
3237.480000, 76.606312
3238.280000, 76.420026
3239.080000, 76.243239
3239.890000, 76.074552
3240.690000, 75.918166
3241.490000, 75.774679
3242.300000, 75.644392
3243.100000, 75.527006
3243.900000, 75.421519
3244.710000, 75.329333
3245.510000, 75.248446
3246.310000, 75.178559
3247.120000, 75.119273
3247.920000, 75.071486
3248.720000, 75.036500
3249.530000, 75.013313
3250.330000, 75.002026
3251.140000, 75.002040
3251.940000, 75.016653
3252.740000, 75.046166
3253.550000, 75.089580
3254.350000, 75.146493
3255.150000, 75.216107
3255.960000, 75.301120
3256.760000, 75.397933
3257.560000, 75.507247
3258.370000, 75.630160
3259.170000, 75.769973
3259.970000, 75.926087
3260.780000, 76.090200
3261.580000, 76.260614
3262.380000, 76.436927
3263.190000, 76.622840
3263.990000, 76.815654
3264.800000, 77.014367
3265.600000, 77.220481
3266.400000, 77.437394
3267.210000, 77.670507
3268.010000, 77.913121
3268.810000, 78.164134
3269.620000, 78.422547
3270.420000, 78.690661
3271.220000, 78.966774
3272.030000, 79.245188
3272.830000, 79.523301
3273.630000, 79.798414
3274.440000, 80.074728
3275.240000, 80.355841
3276.050000, 80.641254
3276.850000, 80.930068
3277.650000, 81.220581
3278.460000, 81.513395
3279.260000, 81.807208
3280.060000, 82.099821
3280.870000, 82.387435
3281.670000, 82.666048
3282.470000, 82.942162
3283.280000, 83.215975
3284.080000, 83.487288
3284.880000, 83.750302
3285.690000, 84.004515
3286.490000, 84.251428
3287.290000, 84.491142
3288.100000, 84.721355
3288.900000, 84.937969
3289.710000, 85.143582
3290.510000, 85.338795
3291.310000, 85.524809
3292.120000, 85.700322
3292.920000, 85.868236
3293.720000, 86.027049
3294.530000, 86.174762
3295.330000, 86.303776
3296.130000, 86.414689
3296.940000, 86.511702
3297.740000, 86.595816
3298.540000, 86.664829
3299.350000, 86.709943
3300.150000, 86.734756
3300.960000, 86.741269
3301.760000, 86.732783
3302.560000, 86.712496
3303.370000, 86.683909
3304.170000, 86.645723
3304.970000, 86.596136
3305.780000, 86.525850
3306.580000, 86.439463
3307.380000, 86.339376
3308.190000, 86.227090
3308.990000, 86.102603
3309.790000, 85.968817
3310.600000, 85.825730
3311.400000, 85.672543
3312.200000, 85.505257
3313.010000, 85.326870
3313.810000, 85.141683
3314.620000, 84.950097
3315.420000, 84.750310
3316.220000, 84.540424
3317.030000, 84.325237
3317.830000, 84.105550
3318.630000, 83.881864
3319.440000, 83.649077
3320.240000, 83.409391
3321.040000, 83.163604
3321.850000, 82.912217
3322.650000, 82.654031
3323.450000, 82.394244
3324.260000, 82.135557
3325.060000, 81.881071
3325.860000, 81.635784
3326.670000, 81.395398
3327.470000, 81.158311
3328.280000, 80.922524
3329.080000, 80.685638
3329.880000, 80.449151
3330.690000, 80.214264
3331.490000, 79.982378
3332.290000, 79.759191
3333.100000, 79.544605
3333.900000, 79.338618
3334.700000, 79.141431
3335.510000, 78.953145
3336.310000, 78.768158
3337.110000, 78.586572
3337.920000, 78.408585
3338.720000, 78.239598
3339.530000, 78.079212
3340.330000, 77.928125
3341.130000, 77.787538
3341.940000, 77.659952
3342.740000, 77.538965
3343.540000, 77.425079
3344.350000, 77.319092
3345.150000, 77.227305
3345.950000, 77.145519
3346.760000, 77.073532
3347.560000, 77.011645
3348.360000, 76.962959
3349.170000, 76.924772
3349.970000, 76.896886
3350.770000, 76.880999
3351.580000, 76.876612
3352.380000, 76.880426
3353.190000, 76.892439
3353.990000, 76.915453
3354.790000, 76.949066
3355.600000, 76.990779
3356.400000, 77.040193
3357.200000, 77.099706
3358.010000, 77.167719
3358.810000, 77.243033
3359.610000, 77.325846
3360.420000, 77.421560
3361.220000, 77.527073
3362.020000, 77.639486
3362.830000, 77.757300
3363.630000, 77.880613
3364.430000, 78.008627
3365.240000, 78.142440
3366.040000, 78.284153
3366.850000, 78.438167
3367.650000, 78.599680
3368.450000, 78.767993
3369.260000, 78.943207
3370.060000, 79.124220
3370.860000, 79.308534
3371.670000, 79.495747
3372.470000, 79.686660
3373.270000, 79.881874
3374.080000, 80.080887
3374.880000, 80.283900
3375.680000, 80.490614
3376.490000, 80.697127
3377.290000, 80.903541
3378.100000, 81.109654
3378.900000, 81.316867
3379.700000, 81.523781
3380.510000, 81.729494
3381.310000, 81.931408
3382.110000, 82.129821
3382.920000, 82.327334
3383.720000, 82.525048
3384.520000, 82.724161
3385.330000, 82.920674
3386.130000, 83.112888
3386.930000, 83.298401
3387.740000, 83.473115
3388.540000, 83.641428
3389.340000, 83.803641
3390.150000, 83.958655
3390.950000, 84.107268
3391.760000, 84.250182
3392.560000, 84.386795
3393.360000, 84.510708
3394.170000, 84.624322
3394.970000, 84.728535
3395.770000, 84.822248
3396.580000, 84.904862
3397.380000, 84.980775
3398.180000, 85.049589
3398.990000, 85.107502
3399.790000, 85.154615
3400.590000, 85.193129
3401.400000, 85.222942
3402.200000, 85.240255
3403.000000, 85.247969
3403.810000, 85.245882
3404.610000, 85.229496
3405.420000, 85.201009
3406.220000, 85.164722
3407.020000, 85.121536
3407.830000, 85.069149
3408.630000, 85.010063
3409.430000, 84.943476
3410.240000, 84.864989
3411.040000, 84.773803
3411.840000, 84.675616
3412.650000, 84.571329
3413.450000, 84.457943
3414.250000, 84.336856
3415.060000, 84.208770
3415.860000, 84.071883
3416.670000, 83.925596
3417.470000, 83.772710
3418.270000, 83.613423
3419.080000, 83.446936
3419.880000, 83.278750
3420.680000, 83.109763
3421.490000, 82.940877
3422.290000, 82.771590
3423.090000, 82.600403
3423.900000, 82.426817
3424.700000, 82.247630
3425.500000, 82.066644
3426.310000, 81.884257
3427.110000, 81.700270
3427.910000, 81.514984
3428.720000, 81.329897
3429.520000, 81.145810
3430.330000, 80.966324
3431.130000, 80.789237
3431.930000, 80.614251
3432.740000, 80.441264
3433.540000, 80.269677
3434.340000, 80.099491
3435.150000, 79.931204
3435.950000, 79.767318
3436.750000, 79.606531
3437.560000, 79.448944
3438.360000, 79.295858
3439.160000, 79.147271
3439.970000, 79.003384
3440.770000, 78.867098
3441.580000, 78.738911
3442.380000, 78.615525
3443.180000, 78.496738
3443.990000, 78.384151
3444.790000, 78.276065
3445.590000, 78.172678
3446.400000, 78.077691
3447.200000, 77.990905
3448.000000, 77.911118
3448.810000, 77.840532
3449.610000, 77.779545
3450.410000, 77.724058
3451.220000, 77.673572
3452.020000, 77.631585
3452.820000, 77.594799
3453.630000, 77.562912
3454.430000, 77.538125
3455.240000, 77.519839
3456.040000, 77.507552
3456.840000, 77.504165
3457.650000, 77.510479
3458.450000, 77.522692
3459.250000, 77.540606
3460.060000, 77.567419
3460.860000, 77.599732
3461.660000, 77.637646
3462.470000, 77.684859
3463.270000, 77.738073
3464.070000, 77.796386
3464.880000, 77.860999
3465.680000, 77.930913
3466.480000, 78.005026
3467.290000, 78.084639
3468.090000, 78.172053
3468.900000, 78.263666
3469.700000, 78.359280
3470.500000, 78.459493
3471.310000, 78.561306
3472.110000, 78.664920
3472.910000, 78.772233
3473.720000, 78.884046
3474.520000, 78.999560
3475.320000, 79.120773
3476.130000, 79.245987
3476.930000, 79.373600
3477.730000, 79.503513
3478.540000, 79.634527
3479.340000, 79.764940
3480.150000, 79.894654
3480.950000, 80.021767
3481.750000, 80.147980
3482.560000, 80.273194
3483.360000, 80.397607
3484.160000, 80.521220
3484.970000, 80.644234
3485.770000, 80.766447
3486.570000, 80.888661
3487.380000, 81.010274
3488.180000, 81.129587
3488.980000, 81.244101
3489.790000, 81.355014
3490.590000, 81.461127
3491.390000, 81.561641
3492.200000, 81.658154
3493.000000, 81.749968
3493.810000, 81.837181
3494.610000, 81.922094
3495.410000, 82.004708
3496.220000, 82.078821
3497.020000, 82.146135
3497.820000, 82.206548
3498.630000, 82.256061
3499.430000, 82.299875
3500.230000, 82.338188
3501.040000, 82.366201
3501.840000, 82.387015
3502.640000, 82.402428
3503.450000, 82.410742
3504.250000, 82.413055
3505.050000, 82.409968
3505.860000, 82.396682
3506.660000, 82.372295
3507.470000, 82.341009
3508.270000, 82.301422
3509.070000, 82.256135
3509.880000, 82.206749
3510.680000, 82.152062
3511.480000, 82.087075
3512.290000, 82.014789
3513.090000, 81.933302
3513.890000, 81.841316
3514.700000, 81.744429
3515.500000, 81.642342
3516.300000, 81.533056
3517.110000, 81.419269
3517.910000, 81.300482
3518.720000, 81.173896
3519.520000, 81.043609
3520.320000, 80.909523
3521.130000, 80.767636
3521.930000, 80.621349
3522.730000, 80.470663
3523.540000, 80.314176
3524.340000, 80.156390
3525.140000, 79.997303
3525.950000, 79.834316
3526.750000, 79.667430
3527.550000, 79.496843
3528.360000, 79.320156
3529.160000, 79.142670
3529.960000, 78.964583
3530.770000, 78.787297
3531.570000, 78.609410
3532.380000, 78.431023
3533.180000, 78.252237
3533.980000, 78.074650
3534.790000, 77.898064
3535.590000, 77.722377
3536.390000, 77.546490
3537.200000, 77.370504
3538.000000, 77.196417
3538.800000, 77.024930
3539.610000, 76.855844
3540.410000, 76.691357
3541.210000, 76.528771
3542.020000, 76.367884
3542.820000, 76.209897
3543.630000, 76.054411
3544.430000, 75.901324
3545.230000, 75.754137
3546.040000, 75.610651
3546.840000, 75.470664
3547.640000, 75.337078
3548.450000, 75.206691
3549.250000, 75.079304
3550.050000, 74.959018
3550.860000, 74.842831
3551.660000, 74.731145
3552.460000, 74.627758
3553.270000, 74.528171
3554.070000, 74.432785
3554.870000, 74.344298
3555.680000, 74.260311
3556.480000, 74.181825
3557.290000, 74.113638
3558.090000, 74.050052
3558.890000, 73.992165
3559.700000, 73.939178
3560.500000, 73.888892
3561.300000, 73.842005
3562.110000, 73.800718
3562.910000, 73.763532
3563.710000, 73.733045
3564.520000, 73.711259
3565.320000, 73.694872
3566.120000, 73.686585
3566.930000, 73.684299
3567.730000, 73.685512
3568.530000, 73.691826
3569.340000, 73.702939
3570.140000, 73.717652
3570.950000, 73.740266
3571.750000, 73.768379
3572.550000, 73.800692
3573.360000, 73.839006
3574.160000, 73.879519
3574.960000, 73.921933
3575.770000, 73.967546
3576.570000, 74.014959
3577.370000, 74.064373
3578.180000, 74.118686
3578.980000, 74.176000
3579.780000, 74.237413
3580.590000, 74.306226
3581.390000, 74.378240
3582.200000, 74.454653
3583.000000, 74.532166
3583.800000, 74.609480
3584.610000, 74.685493
3585.410000, 74.761407
3586.210000, 74.837220
3587.020000, 74.913633
3587.820000, 74.989547
3588.620000, 75.065160
3589.430000, 75.141073
3590.230000, 75.218387
3591.030000, 75.297000
3591.840000, 75.376214
3592.640000, 75.453727
3593.440000, 75.529240
3594.250000, 75.601254
3595.050000, 75.671967
3595.860000, 75.741081
3596.660000, 75.807094
3597.460000, 75.870707
3598.270000, 75.929621
3599.070000, 75.984334
3599.870000, 76.036547
3600.680000, 76.085061
3601.480000, 76.130074
3602.280000, 76.172588
3603.090000, 76.206001
3603.890000, 76.234814
3604.690000, 76.258328
3605.500000, 76.274241
3606.300000, 76.286455
3607.100000, 76.292968
3607.910000, 76.291981
3608.710000, 76.286895
3609.520000, 76.274808
3610.320000, 76.257621
3611.120000, 76.237135
3611.930000, 76.209048
3612.730000, 76.175562
3613.530000, 76.137075
3614.340000, 76.087288
3615.140000, 76.033002
3615.940000, 75.972515
3616.750000, 75.905128
3617.550000, 75.834142
3618.350000, 75.756455
3619.160000, 75.671669
3619.960000, 75.582382
3620.770000, 75.483695
3621.570000, 75.379809
3622.370000, 75.271422
3623.180000, 75.153036
3623.980000, 75.030049
3624.780000, 74.900162
3625.590000, 74.762776
3626.390000, 74.622389
3627.190000, 74.477302
3628.000000, 74.327416
3628.800000, 74.174429
3629.600000, 74.013243
3630.410000, 73.849156
3631.210000, 73.682069
3632.010000, 73.512183
3632.820000, 73.340296
3633.620000, 73.164909
3634.430000, 72.983123
3635.230000, 72.798136
3636.030000, 72.607050
3636.840000, 72.413963
3637.640000, 72.219376
3638.440000, 72.023590
3639.250000, 71.827303
3640.050000, 71.630117
3640.850000, 71.430730
3641.660000, 71.230243
3642.460000, 71.027657
3643.260000, 70.824170
3644.070000, 70.620083
3644.870000, 70.415997
3645.670000, 70.212310
3646.480000, 70.008924
3647.280000, 69.806937
3648.090000, 69.605750
3648.890000, 69.406364
3649.690000, 69.209277
3650.500000, 69.013491
3651.300000, 68.820804
3652.100000, 68.629517
3652.910000, 68.439931
3653.710000, 68.252344
3654.510000, 68.065857
3655.320000, 67.881171
3656.120000, 67.699484
3656.920000, 67.519698
3657.730000, 67.346511
3658.530000, 67.176524
3659.340000, 67.010638
3660.140000, 66.849851
3660.940000, 66.691164
3661.750000, 66.536778
3662.550000, 66.385491
3663.350000, 66.236105
3664.160000, 66.091718
3664.960000, 65.950531
3665.760000, 65.814045
3666.570000, 65.685858
3667.370000, 65.561672
3668.170000, 65.445685
3668.980000, 65.333898
3669.780000, 65.225312
3670.580000, 65.122125
3671.390000, 65.021038
3672.190000, 64.923852
3673.000000, 64.831565
3673.800000, 64.742179
3674.600000, 64.660592
3675.410000, 64.583205
3676.210000, 64.510619
3677.010000, 64.444932
3677.820000, 64.382145
3678.620000, 64.325059
3679.420000, 64.272472
3680.230000, 64.222886
3681.030000, 64.181099
3681.830000, 64.142012
3682.640000, 64.107326
3683.440000, 64.077039
3684.250000, 64.049153
3685.050000, 64.028366
3685.850000, 64.011979
3686.660000, 64.000493
3687.460000, 63.995006
3688.260000, 63.991719
3689.070000, 63.992533
3689.870000, 63.996046
3690.670000, 64.001560
3691.480000, 64.012673
3692.280000, 64.026086
3693.080000, 64.044200
3693.890000, 64.066313
3694.690000, 64.090427
3695.490000, 64.118540
3696.300000, 64.147853
3697.100000, 64.179167
3697.910000, 64.213680
3698.710000, 64.249693
3699.510000, 64.289607
3700.320000, 64.331220
3701.120000, 64.374734
3701.920000, 64.421147
3702.730000, 64.468860
3703.530000, 64.519474
3704.330000, 64.571187
3705.140000, 64.623800
3705.940000, 64.675614
3706.740000, 64.726727
3707.550000, 64.776341
3708.350000, 64.825854
3709.150000, 64.875367
3709.960000, 64.926381
3710.760000, 64.977294
3711.570000, 65.027908
3712.370000, 65.076121
3713.170000, 65.123134
3713.980000, 65.166248
3714.780000, 65.208561
3715.580000, 65.248974
3716.390000, 65.287788
3717.190000, 65.325701
3717.990000, 65.359515
3718.800000, 65.392028
3719.600000, 65.421841
3720.400000, 65.450055
3721.210000, 65.477568
3722.010000, 65.501982
3722.820000, 65.523695
3723.620000, 65.541008
3724.420000, 65.552422
3725.230000, 65.561035
3726.030000, 65.564348
3726.830000, 65.566062
3727.640000, 65.565175
3728.440000, 65.559589
3729.240000, 65.551702
3730.050000, 65.535415
3730.850000, 65.516029
3731.650000, 65.491342
3732.460000, 65.461455
3733.260000, 65.429169
3734.060000, 65.389882
3734.870000, 65.347996
3735.670000, 65.301109
3736.480000, 65.248522
3737.280000, 65.193336
3738.080000, 65.130949
3738.890000, 65.066663
3739.690000, 64.998576
3740.490000, 64.926289
3741.300000, 64.851803
3742.100000, 64.770216
3742.900000, 64.686529
3743.710000, 64.598043
3744.510000, 64.505756
3745.310000, 64.411170
3746.120000, 64.311083
3746.920000, 64.209196
3747.720000, 64.102810
3748.530000, 63.993723
3749.330000, 63.882336
3750.140000, 63.767550
3750.940000, 63.651563
3751.740000, 63.532877
3752.550000, 63.412590
3753.350000, 63.290903
3754.150000, 63.166517
3754.960000, 63.041130
3755.760000, 62.913044
3756.560000, 62.783857
3757.370000, 62.653070
3758.170000, 62.520684
3758.970000, 62.387697
3759.780000, 62.252810
3760.580000, 62.117724
3761.390000, 61.981937
3762.190000, 61.846251
3762.990000, 61.710764
3763.800000, 61.576677
3764.600000, 61.442991
3765.400000, 61.310304
3766.210000, 61.178318
3767.010000, 61.046831
3767.810000, 60.917544
3768.620000, 60.789058
3769.420000, 60.663671
3770.220000, 60.539684
3771.030000, 60.417598
3771.830000, 60.297711
3772.630000, 60.178825
3773.440000, 60.063038
3774.240000, 59.948451
3775.050000, 59.836665
3775.850000, 59.728178
3776.650000, 59.621891
3777.460000, 59.521105
3778.260000, 59.422018
3779.060000, 59.327832
3779.870000, 59.236645
3780.670000, 59.148758
3781.470000, 59.065772
3782.280000, 58.984785
3783.080000, 58.909499
3783.880000, 58.835612
3784.690000, 58.764925
3785.490000, 58.697539
3786.300000, 58.632252
3787.100000, 58.574065
3787.900000, 58.518579
3788.710000, 58.471292
3789.510000, 58.427906
3790.310000, 58.389619
3791.120000, 58.356732
3791.920000, 58.326046
3792.720000, 58.301759
3793.530000, 58.279273
3794.330000, 58.261286
3795.130000, 58.246999
3795.940000, 58.235813
3796.740000, 58.231326
3797.540000, 58.229239
3798.350000, 58.235953
3799.150000, 58.245866
3799.960000, 58.261880
3800.760000, 58.282793
3801.560000, 58.306806
3802.370000, 58.337320
3803.170000, 58.369733
3803.970000, 58.408046
3804.780000, 58.448860
3805.580000, 58.493273
3806.380000, 58.542087
3807.190000, 58.593000
3807.990000, 58.652600
3808.790000, 58.714300
3809.600000, 58.782400
3810.400000, 58.853900
3811.200000, 58.929300
3812.010000, 59.009100
3812.810000, 59.090600
3813.620000, 59.177500
3814.420000, 59.265900
3815.220000, 59.359500
3816.030000, 59.456500
3816.830000, 59.557200
3817.630000, 59.661900
3818.440000, 59.767900
3819.240000, 59.877600
3820.040000, 59.988200
3820.850000, 60.102100
3821.650000, 60.217900
3822.450000, 60.336100
3823.260000, 60.457200
3824.060000, 60.579400
3824.870000, 60.706100
3825.670000, 60.833900
3826.470000, 60.965100
3827.280000, 61.097400
3828.080000, 61.230900
3828.880000, 61.364800
3829.690000, 61.498700
3830.490000, 61.632100
3831.290000, 61.765600
3832.100000, 61.899100
3832.900000, 62.033000
3833.700000, 62.167600
3834.510000, 62.302400
3835.310000, 62.437300
3836.110000, 62.571200
3836.920000, 62.704800
3837.720000, 62.837400
3838.530000, 62.969900
3839.330000, 63.102200
3840.130000, 63.233400
3840.940000, 63.363800
3841.740000, 63.489500
3842.540000, 63.613800
3843.350000, 63.732000
3844.150000, 63.849000
3844.950000, 63.962600
3845.760000, 64.074600
3846.560000, 64.184700
3847.360000, 64.291400
3848.170000, 64.396800
3848.970000, 64.495600
3849.770000, 64.592400
3850.580000, 64.682300
3851.380000, 64.769300
3852.190000, 64.851900
3852.990000, 64.930900
3853.790000, 65.007700
3854.600000, 65.078600
3855.400000, 65.147900
3856.200000, 65.209300
3857.010000, 65.268400
3857.810000, 65.321100
3858.610000, 65.369200
3859.420000, 65.412200
3860.220000, 65.448300
3861.020000, 65.481300
3861.830000, 65.506500
3862.630000, 65.529800
3863.440000, 65.545300
3864.240000, 65.557500
3865.040000, 65.562500
3865.850000, 65.562000
3866.650000, 65.556600
3867.450000, 65.544600
3868.260000, 65.530300
3869.060000, 65.506900
3869.860000, 65.481300
3870.670000, 65.445900
3871.470000, 65.407100
3872.270000, 65.361700
3873.080000, 65.312400
3873.880000, 65.260000
3874.680000, 65.202700
3875.490000, 65.143800
3876.290000, 65.076900
3877.100000, 65.008200
3877.900000, 64.930900
3878.700000, 64.850700
3879.510000, 64.764400
3880.310000, 64.674400
3881.110000, 64.581100
3881.920000, 64.484000
3882.720000, 64.385400
3883.520000, 64.283700
3884.330000, 64.181400
3885.130000, 64.076300
3885.930000, 63.969800
3886.740000, 63.859700
3887.540000, 63.746300
3888.350000, 63.629400
3889.150000, 63.508800
3889.950000, 63.386200
3890.760000, 63.260700
3891.560000, 63.134700
3892.360000, 63.007400
3893.170000, 62.880000
3893.970000, 62.752100
3894.770000, 62.623600
3895.580000, 62.494200
3896.380000, 62.364200
3897.180000, 62.233700
3897.990000, 62.104200
3898.790000, 61.975200
3899.590000, 61.848300
3900.400000, 61.721500
3901.200000, 61.594700
3902.010000, 61.467500
3902.810000, 61.339500
3903.610000, 61.212100
3904.420000, 61.085500
3905.220000, 60.961100
3906.020000, 60.838100
3906.830000, 60.718300
3907.630000, 60.599300
3908.430000, 60.484000
3909.240000, 60.369300
3910.040000, 60.257800
3910.840000, 60.147500
3911.650000, 60.040000
3912.450000, 59.934500
3913.250000, 59.831400
3914.060000, 59.731600
3914.860000, 59.633800
3915.670000, 59.540600
3916.470000, 59.448700
3917.270000, 59.361300
3918.080000, 59.274700
3918.880000, 59.191700
3919.680000, 59.110200
3920.490000, 59.033000
3921.290000, 58.959300
3922.090000, 58.890400
3922.900000, 58.825900
3923.700000, 58.764800
3924.500000, 58.708100
3925.310000, 58.653100
3926.110000, 58.603500
3926.920000, 58.554800
3927.720000, 58.512300
3928.520000, 58.470800
3929.330000, 58.434000
3930.130000, 58.399500
3930.930000, 58.369500
3931.740000, 58.343400
3932.540000, 58.321700
3933.340000, 58.304600
3934.150000, 58.290400
3934.950000, 58.280600
3935.750000, 58.272300
3936.560000, 58.269500
3937.360000, 58.267600
3938.160000, 58.272600
3938.970000, 58.278900
3939.770000, 58.291200
3940.580000, 58.305600
3941.380000, 58.324900
3942.180000, 58.347200
3942.990000, 58.373500
3943.790000, 58.403500
3944.590000, 58.436200
3945.400000, 58.472700
3946.200000, 58.510700
3947.000000, 58.552800
3947.810000, 58.595700
3948.610000, 58.643700
3949.410000, 58.692400
3950.220000, 58.745400
3951.020000, 58.799300
3951.820000, 58.856000
3952.630000, 58.914200
3953.430000, 58.974900
3954.240000, 59.038000
3955.040000, 59.103600
3955.840000, 59.171900
3956.650000, 59.241900
3957.450000, 59.314400
3958.250000, 59.387800
3959.060000, 59.463800
3959.860000, 59.540100
3960.660000, 59.619700
3961.470000, 59.699600
3962.270000, 59.782000
3963.070000, 59.864700
3963.880000, 59.948600
3964.680000, 60.032600
3965.490000, 60.117000
3966.290000, 60.201500
3967.090000, 60.286300
3967.900000, 60.371500
3968.700000, 60.456900
3969.500000, 60.542500
3970.310000, 60.628100
3971.110000, 60.713100
3971.910000, 60.797900
3972.720000, 60.881900
3973.520000, 60.965600
3974.320000, 61.048800
3975.130000, 61.131700
3975.930000, 61.213100
3976.730000, 61.293600
3977.540000, 61.370500
3978.340000, 61.445700
3979.150000, 61.516600
3979.950000, 61.585500
3980.750000, 61.651100
3981.560000, 61.714900
3982.360000, 61.776700
3983.160000, 61.836600
3983.970000, 61.895200
3984.770000, 61.950700
3985.570000, 62.004800
3986.380000, 62.054000
3987.180000, 62.101800
3987.980000, 62.142800
3988.790000, 62.182800
3989.590000, 62.215000
3990.390000, 62.246500
3991.200000, 62.271100
3992.000000, 62.294600
3992.810000, 62.311900
3993.610000, 62.327600
3994.410000, 62.337600
3995.220000, 62.345600
3996.020000, 62.348900
3996.820000, 62.349600
3997.630000, 62.346100
3998.430000, 62.338300
3999.230000, 62.325900
4000.040000, 62.307500
4000.840000, 62.284500
4001.640000, 62.255600
4002.450000, 62.223300
4003.250000, 62.185300
4004.060000, 62.145100
4004.860000, 62.097800
4005.660000, 62.048800
4006.470000, 61.991200
4007.270000, 61.932400
4008.070000, 61.865200
4008.880000, 61.797400
4009.680000, 61.721700
4010.480000, 61.645300
4011.290000, 61.561200
4012.090000, 61.475900
4012.890000, 61.383400
4013.700000, 61.289200
4014.500000, 61.189000
4015.300000, 61.086500
4016.110000, 60.978600
4016.910000, 60.867900
4017.720000, 60.752100
4018.520000, 60.633000
4019.320000, 60.509400
4020.130000, 60.382500
4020.930000, 60.251800
4021.730000, 60.117700
4022.540000, 59.980800
4023.340000, 59.841200
4024.140000, 59.699900
4024.950000, 59.556200
4025.750000, 59.411300
4026.550000, 59.263400
4027.360000, 59.114500
4028.160000, 58.962000
4028.970000, 58.808600
4029.770000, 58.652000
4030.570000, 58.494700
4031.380000, 58.334900
4032.180000, 58.174700
4032.980000, 58.012700
4033.790000, 57.850500
4034.590000, 57.686800
4035.390000, 57.523000
4036.200000, 57.357000
4037.000000, 57.190900
4037.800000, 57.021900
4038.610000, 56.852600
4039.410000, 56.681200
4040.210000, 56.510000
4041.020000, 56.339400
4041.820000, 56.169200
4042.630000, 56.000900
4043.430000, 55.832700
4044.230000, 55.665000
4045.040000, 55.497400
4045.840000, 55.329800
4046.640000, 55.162700
4047.450000, 54.996700
4048.250000, 54.831500
4049.050000, 54.667600
4049.860000, 54.504500
4050.660000, 54.342600
4051.460000, 54.182100
4052.270000, 54.023600
4053.070000, 53.866900
4053.870000, 53.712600
4054.680000, 53.559900
4055.480000, 53.409000
4056.290000, 53.259500
4057.090000, 53.111500
4057.890000, 52.965300
4058.700000, 52.820800
4059.500000, 52.678500
4060.300000, 52.538100
4061.110000, 52.400300
4061.910000, 52.264600
4062.710000, 52.131300
4063.520000, 51.999700
4064.320000, 51.870400
4065.120000, 51.742700
4065.930000, 51.617700
4066.730000, 51.494600
4067.540000, 51.375000
4068.340000, 51.257600
4069.140000, 51.143200
4069.950000, 51.030600
4070.750000, 50.919800
4071.550000, 50.810000
4072.360000, 50.702000
4073.160000, 50.594800
4073.960000, 50.491100
4074.770000, 50.389000
4075.570000, 50.292100
4076.370000, 50.197500
4077.180000, 50.107700
4077.980000, 50.020000
4078.780000, 49.935500
4079.590000, 49.852400
4080.390000, 49.771600
4081.200000, 49.692000
4082.000000, 49.614800
4082.800000, 49.538700
4083.610000, 49.465600
4084.410000, 49.393800
4085.210000, 49.325500
4086.020000, 49.258800
4086.820000, 49.195900
4087.620000, 49.134700
4088.430000, 49.077100
4089.230000, 49.021200
4090.030000, 48.968400
4090.840000, 48.917000
4091.640000, 48.867800
4092.440000, 48.819600
4093.250000, 48.772700
4094.050000, 48.726400
4094.860000, 48.681900
4095.660000, 48.638300
4096.460000, 48.597600
4097.270000, 48.558400
4098.070000, 48.522400
4098.870000, 48.488100
4099.680000, 48.456000
4100.480000, 48.425200
4101.280000, 48.395500
4102.090000, 48.366400
4102.890000, 48.338000
4103.690000, 48.310000
4104.500000, 48.282800
4105.300000, 48.256200
4106.110000, 48.230800
4106.910000, 48.206400
4107.710000, 48.183400
4108.520000, 48.161700
4109.320000, 48.140900
4110.120000, 48.120900
4110.930000, 48.101400
4111.730000, 48.082400
4112.530000, 48.063900
4113.340000, 48.046200
4114.140000, 48.029000
4114.940000, 48.012400
4115.750000, 47.995600
4116.550000, 47.978400
4117.350000, 47.960900
4118.160000, 47.942600
4118.960000, 47.924400
4119.770000, 47.906100
4120.570000, 47.887900
4121.370000, 47.869800
4122.180000, 47.851200
4122.980000, 47.831400
4123.780000, 47.811200
4124.590000, 47.789200
4125.390000, 47.766900
4126.190000, 47.743600
4127.000000, 47.720300
4127.800000, 47.696300
4128.600000, 47.672300
4129.410000, 47.647000
4130.210000, 47.621800
4131.020000, 47.594500
4131.820000, 47.567300
4132.620000, 47.537700
4133.430000, 47.507900
4134.230000, 47.474900
4135.030000, 47.441600
4135.840000, 47.405300
4136.640000, 47.368400
4137.440000, 47.330000
4138.250000, 47.291200
4139.050000, 47.251500
4139.850000, 47.211700
4140.660000, 47.170100
4141.460000, 47.127800
4142.260000, 47.082600
4143.070000, 47.035800
4143.870000, 46.986200
4144.680000, 46.934600
4145.480000, 46.880800
4146.280000, 46.825100
4147.090000, 46.767800
4147.890000, 46.708500
4148.690000, 46.647700
4149.500000, 46.584800
4150.300000, 46.520700
4151.100000, 46.454100
4151.910000, 46.386800
4152.710000, 46.317600
4153.510000, 46.248100
4154.320000, 46.176900
4155.120000, 46.105300
4155.920000, 46.030800
4156.730000, 45.956100
4157.530000, 45.877400
4158.340000, 45.798700
4159.140000, 45.717300
4159.940000, 45.636000
4160.750000, 45.553200
4161.550000, 45.470400
4162.350000, 45.385800
4163.160000, 45.300900
4163.960000, 45.213700
4164.760000, 45.125900
4165.570000, 45.036100
4166.370000, 44.945400
4167.170000, 44.853600
4167.980000, 44.761000
4168.780000, 44.667200
4169.590000, 44.572300
4170.390000, 44.476200
4171.190000, 44.378400
4172.000000, 44.280000
4172.800000, 44.180000
4173.600000, 44.079800
4174.410000, 43.978800
4175.210000, 43.877700
4176.010000, 43.776200
4176.820000, 43.674600
4177.620000, 43.572600
4178.420000, 43.470500
4179.230000, 43.367900
4180.030000, 43.265400
4180.830000, 43.162900
4181.640000, 43.060500
4182.440000, 42.959400
4183.250000, 42.858800
4184.050000, 42.760700
4184.850000, 42.663900
4185.660000, 42.570300
4186.460000, 42.479100
4187.260000, 42.391500
4188.070000, 42.307900
4188.870000, 42.227600
4189.670000, 42.153300
4190.480000, 42.081900
4191.280000, 42.018900
4192.080000, 41.958000
4192.890000, 41.909100
4193.690000, 41.860800
4194.490000, 41.828300
4195.300000, 41.795800
4196.100000, 41.777700
4196.910000, 41.760800
4197.710000, 41.753000
4198.510000, 41.747300
4199.320000, 41.746100
4200.120000, 41.746800
4200.920000, 41.750400
4201.730000, 41.756100
4202.530000, 41.764800
4203.330000, 41.776900
4204.140000, 41.791500
4204.940000, 41.810500
4205.740000, 41.831500
4206.550000, 41.859300
4207.350000, 41.888300
4208.160000, 41.929100
4208.960000, 41.969800
4209.760000, 42.025700
4210.570000, 42.082000
4211.370000, 42.149200
4212.170000, 42.218300
4212.980000, 42.292000
4213.780000, 42.367600
4214.580000, 42.444200
4215.390000, 42.521800
4216.190000, 42.600800
4216.990000, 42.681700
4217.800000, 42.764500
4218.600000, 42.851400
4219.400000, 42.938800
4220.210000, 43.028400
4221.010000, 43.117600
4221.820000, 43.202500
4222.620000, 43.287300
4223.420000, 43.365800
4224.230000, 43.443600
4225.030000, 43.516000
4225.830000, 43.586600
4226.640000, 43.648300
4227.440000, 43.704700
4228.240000, 43.748700
4229.050000, 43.779500
4229.850000, 43.798700
4230.650000, 43.794900
4231.460000, 43.785300
4232.260000, 43.750500
4233.060000, 43.715500
4233.870000, 43.673800
4234.670000, 43.632100
4235.480000, 43.588400
4236.280000, 43.544300
4237.080000, 43.473400
4237.890000, 43.392900
4238.690000, 43.283100
4239.490000, 43.152200
4240.300000, 43.006000
4241.100000, 42.839100
4241.900000, 42.659900
4242.710000, 42.446900
4243.510000, 42.227900
4244.310000, 41.959300
4245.120000, 41.690700
4245.920000, 41.406500
4246.730000, 41.121500
4247.530000, 40.852400
4248.330000, 40.587700
4249.140000, 40.323600
4249.940000, 40.059700
4250.740000, 39.783700
4251.550000, 39.492700
4252.350000, 39.196600
4253.150000, 38.887100
4253.960000, 38.581100
4254.760000, 38.301700
4255.560000, 38.022400
4256.370000, 37.834400
4257.170000, 37.652500
4257.970000, 37.572000
4258.780000, 37.522800
4259.580000, 37.538800
4260.390000, 37.600400
4261.190000, 37.676100
4261.990000, 37.771900
4262.800000, 37.857300
4263.600000, 37.908200
4264.400000, 37.955600
4265.210000, 37.937700
4266.010000, 37.919800
4266.810000, 37.853500
4267.620000, 37.779800
4268.420000, 37.674200
4269.220000, 37.553900
4270.030000, 37.409700
4270.830000, 37.241000
4271.640000, 37.059800
4272.440000, 36.850400
4273.240000, 36.640700
4274.050000, 36.427900
4274.850000, 36.215300
4275.650000, 36.050400
4276.460000, 35.889500
4277.260000, 35.775300
4278.060000, 35.678300
4278.870000, 35.587200
4279.670000, 35.501200
4280.470000, 35.405200
4281.280000, 35.289600
4282.080000, 35.172400
4282.880000, 35.045600
4283.690000, 34.918900
4284.490000, 34.797900
4285.300000, 34.677400
4286.100000, 34.553800
4286.900000, 34.429100
4287.710000, 34.296000
4288.510000, 34.155500
4289.310000, 34.009600
4290.120000, 33.852500
4290.920000, 33.693900
4291.720000, 33.523900
4292.530000, 33.354000
4293.330000, 33.174000
4294.130000, 32.992900
4294.940000, 32.804000
4295.740000, 32.611700
4296.540000, 32.415800
4297.350000, 32.215900
4298.150000, 32.015800
4298.960000, 31.814900
4299.760000, 31.614000
4300.560000, 31.413000
4301.370000, 31.212100
4302.170000, 31.008200
4302.970000, 30.803700
4303.780000, 30.597700
4304.580000, 30.390800
4305.380000, 30.183200
4306.190000, 29.974500
4306.990000, 29.764600
4307.790000, 29.548300
4308.600000, 29.332100
4309.400000, 29.107100
4310.210000, 28.881500
4311.010000, 28.654600
4311.810000, 28.427000
4312.620000, 28.202100
4313.420000, 27.980100
4314.220000, 27.759800
4315.030000, 27.545000
4315.830000, 27.330200
4316.630000, 27.122600
4317.440000, 26.915100
4318.240000, 26.716900
4319.040000, 26.521500
4319.850000, 26.333500
4320.650000, 26.152000
4321.450000, 25.972600
4322.260000, 25.797900
4323.060000, 25.623400
4323.870000, 25.448800
4324.670000, 25.274300
4325.470000, 25.097800
4326.280000, 24.920800
4327.080000, 24.742000
4327.880000, 24.561800
4328.690000, 24.380900
4329.490000, 24.198500
4330.290000, 24.016200
4331.100000, 23.833800
4331.900000, 23.651400
4332.700000, 23.470700
4333.510000, 23.290400
4334.310000, 23.111300
4335.110000, 22.933400
4335.920000, 22.756600
4336.720000, 22.582500
4337.530000, 22.408900
4338.330000, 22.242800
4339.130000, 22.076800
4339.940000, 21.918500
4340.740000, 21.762200
4341.540000, 21.610000
4342.350000, 21.461400
4343.150000, 21.314400
4343.950000, 21.171700
4344.760000, 21.029000
4345.560000, 20.889500
4346.360000, 20.750000
4347.170000, 20.610400
4347.970000, 20.470800
4348.780000, 20.331900
4349.580000, 20.194000
4350.380000, 20.057300
4351.190000, 19.925200
4351.990000, 19.793200
4352.790000, 19.666700
4353.600000, 19.540600
4354.400000, 19.416800
4355.200000, 19.294300
4356.010000, 19.173200
4356.810000, 19.054100
4357.610000, 18.935500
4358.420000, 18.820700
4359.220000, 18.706000
4360.020000, 18.594300
4360.830000, 18.483400
4361.630000, 18.374600
4362.440000, 18.267700
4363.240000, 18.162100
4364.040000, 18.060300
4364.850000, 17.958400
4365.650000, 17.861100
4366.450000, 17.764000
4367.260000, 17.669300
4368.060000, 17.575600
4368.860000, 17.483200
4369.670000, 17.392600
4370.470000, 17.302400
4371.270000, 17.215600
4372.080000, 17.128900
4372.880000, 17.046300
4373.690000, 16.964700
4374.490000, 16.886200
4375.290000, 16.810700
4376.100000, 16.736500
4376.900000, 16.666800
4377.700000, 16.597000
4378.510000, 16.532000
4379.310000, 16.467300
4380.110000, 16.406000
4380.920000, 16.346700
4381.720000, 16.288900
4382.520000, 16.234500
4383.330000, 16.180200
4384.130000, 16.129500
4384.930000, 16.078900
4385.740000, 16.030700
4386.540000, 15.983600
4387.350000, 15.938000
4388.150000, 15.894700
4388.950000, 15.851700
4389.760000, 15.811600
4390.560000, 15.771500
4391.360000, 15.733500
4392.170000, 15.696200
4392.970000, 15.660500
4393.770000, 15.626600
4394.580000, 15.593300
4395.380000, 15.563100
4396.180000, 15.532900
4396.990000, 15.504500
4397.790000, 15.476600
4398.590000, 15.449500
4399.400000, 15.423000
4400.200000, 15.397100
4401.010000, 15.373100
4401.810000, 15.349200
4402.610000, 15.328700
4403.420000, 15.308800
4404.220000, 15.291000
4405.020000, 15.275100
4405.830000, 15.259800
4406.630000, 15.246600
4407.430000, 15.233500
4408.240000, 15.222600
4409.040000, 15.212000
4409.840000, 15.203200
4410.650000, 15.195700
4411.450000, 15.188900
4412.260000, 15.184000
4413.060000, 15.179100
4413.860000, 15.175500
4414.670000, 15.172000
4415.470000, 15.169600
4416.270000, 15.168200
4417.080000, 15.167500
4417.880000, 15.169600
4418.680000, 15.171700
4419.490000, 15.176100
4420.290000, 15.180900
4421.090000, 15.186300
4421.900000, 15.192400
4422.700000, 15.198800
4423.500000, 15.206800
4424.310000, 15.214800
4425.110000, 15.225400
4425.920000, 15.236500
4426.720000, 15.249100
4427.520000, 15.263600
4428.330000, 15.278400
4429.130000, 15.295500
4429.930000, 15.312700
4430.740000, 15.331200
4431.540000, 15.350100
4432.340000, 15.369700
4433.150000, 15.390200
4433.950000, 15.410800
4434.750000, 15.432700
4435.560000, 15.454600
4436.360000, 15.477000
4437.160000, 15.499700
4437.970000, 15.522500
4438.770000, 15.545700
4439.580000, 15.568900
4440.380000, 15.593600
4441.180000, 15.618400
4441.990000, 15.644800
4442.790000, 15.672400
4443.590000, 15.700600
4444.400000, 15.731000
4445.200000, 15.761500
4446.000000, 15.793500
4446.810000, 15.825900
4447.610000, 15.858300
4448.410000, 15.891000
4449.220000, 15.923600
4450.020000, 15.956800
4450.830000, 15.989900
4451.630000, 16.024700
4452.430000, 16.060100
4453.240000, 16.096400
4454.040000, 16.134400
4454.840000, 16.172400
4455.650000, 16.211900
4456.450000, 16.251400
4457.250000, 16.291100
4458.060000, 16.330900
4458.860000, 16.370500
4459.660000, 16.409800
4460.470000, 16.449000
4461.270000, 16.488000
4462.070000, 16.526900
4462.880000, 16.566000
4463.680000, 16.605500
4464.490000, 16.645100
4465.290000, 16.685900
4466.090000, 16.726700
4466.900000, 16.768400
4467.700000, 16.810500
4468.500000, 16.852900
4469.310000, 16.896400
4470.110000, 16.939900
4470.910000, 16.984300
4471.720000, 17.028900
4472.520000, 17.073600
4473.320000, 17.118600
4474.130000, 17.163600
4474.930000, 17.208400
4475.730000, 17.253200
4476.540000, 17.297900
4477.340000, 17.342600
4478.150000, 17.387500
4478.950000, 17.432900
4479.750000, 17.478300
4480.560000, 17.524600
4481.360000, 17.571100
4482.160000, 17.617800
4482.970000, 17.664900
4483.770000, 17.712000
4484.570000, 17.759200
4485.380000, 17.806400
4486.180000, 17.853700
4486.980000, 17.901000
4487.790000, 17.948300
4488.590000, 17.995800
4489.400000, 18.043200
4490.200000, 18.090500
4491.000000, 18.137900
4491.810000, 18.185100
4492.610000, 18.231800
4493.410000, 18.278500
4494.220000, 18.324000
4495.020000, 18.369300
4495.820000, 18.414200
4496.630000, 18.458700
4497.430000, 18.503200
4498.230000, 18.548300
4499.040000, 18.593400
4499.840000, 18.639100
4500.640000, 18.685100
4501.450000, 18.731000
4502.250000, 18.776600
4503.060000, 18.822200
4503.860000, 18.867500
4504.660000, 18.912700
4505.470000, 18.958200
4506.270000, 19.004200
4507.070000, 19.050200
4507.880000, 19.096800
4508.680000, 19.143300
4509.480000, 19.189400
4510.290000, 19.234800
4511.090000, 19.280200
4511.890000, 19.324000
4512.700000, 19.367900
4513.500000, 19.411500
4514.310000, 19.454800
4515.110000, 19.498200
4515.910000, 19.541900
4516.720000, 19.585500
4517.520000, 19.629200
4518.320000, 19.672900
4519.130000, 19.716500
4519.930000, 19.759900
4520.730000, 19.803200
4521.540000, 19.845800
4522.340000, 19.888300
4523.140000, 19.930400
4523.950000, 19.971700
4524.750000, 20.013000
4525.550000, 20.053600
4526.360000, 20.094100
4527.160000, 20.134600
4527.970000, 20.175000
4528.770000, 20.215400
4529.570000, 20.255800
4530.380000, 20.296200
4531.180000, 20.336200
4531.980000, 20.376000
4532.790000, 20.415700
4533.590000, 20.454700
4534.390000, 20.493800
4535.200000, 20.532600
4536.000000, 20.571200
4536.800000, 20.609600
4537.610000, 20.647200
4538.410000, 20.684700
4539.210000, 20.721100
4540.020000, 20.756900
4540.820000, 20.792500
4541.630000, 20.827200
4542.430000, 20.861900
4543.230000, 20.896600
4544.040000, 20.931400
4544.840000, 20.966100
4545.640000, 21.001000
4546.450000, 21.035800
4547.250000, 21.070100
4548.050000, 21.104300
4548.860000, 21.138000
4549.660000, 21.170800
4550.460000, 21.203500
4551.270000, 21.234900
4552.070000, 21.265900
4552.880000, 21.296300
4553.680000, 21.325200
4554.480000, 21.354100
4555.290000, 21.381700
4556.090000, 21.409000
4556.890000, 21.435900
4557.700000, 21.462200
4558.500000, 21.488500
4559.300000, 21.514100
4560.110000, 21.539600
4560.910000, 21.564700
4561.710000, 21.589000
4562.520000, 21.613200
4563.320000, 21.635700
4564.120000, 21.657800
4564.930000, 21.679100
4565.730000, 21.698800
4566.540000, 21.718600
4567.340000, 21.737100
4568.140000, 21.755500
4568.950000, 21.773500
4569.750000, 21.791000
4570.550000, 21.808600
4571.360000, 21.825100
4572.160000, 21.841400
4572.960000, 21.857100
4573.770000, 21.871400
4574.570000, 21.885800
4575.370000, 21.897900
4576.180000, 21.909400
4576.980000, 21.920000
4577.780000, 21.928200
4578.590000, 21.936400
4579.390000, 21.942600
4580.200000, 21.948100
4581.000000, 21.953100
4581.800000, 21.956400
4582.610000, 21.959700
4583.410000, 21.961600
4584.210000, 21.963000
4585.020000, 21.964000
4585.820000, 21.963500
4586.620000, 21.963100
4587.430000, 21.961100
4588.230000, 21.958300
4589.030000, 21.955000
4589.840000, 21.948800
4590.640000, 21.942500
4591.450000, 21.933800
4592.250000, 21.923600
4593.050000, 21.913100
4593.860000, 21.899600
4594.660000, 21.886100
4595.460000, 21.871300
4596.270000, 21.855400
4597.070000, 21.839500
4597.870000, 21.821200
4598.680000, 21.802900
4599.480000, 21.783100
4600.280000, 21.761600
4601.090000, 21.740100
4601.890000, 21.715100
4602.690000, 21.690000
4603.500000, 21.663300
4604.300000, 21.634300
4605.110000, 21.605300
4605.910000, 21.572700
4606.710000, 21.539400
4607.520000, 21.505100
4608.320000, 21.468300
4609.120000, 21.431500
4609.930000, 21.392900
4610.730000, 21.353900
4611.530000, 21.314300
4612.340000, 21.272700
4613.140000, 21.231200
4613.940000, 21.187100
4614.750000, 21.141800
4615.550000, 21.096100
4616.360000, 21.046700
4617.160000, 20.997200
4617.960000, 20.945800
4618.770000, 20.892800
4619.570000, 20.839700
4620.370000, 20.783700
4621.180000, 20.727600
4621.980000, 20.670300
4622.780000, 20.611300
4623.590000, 20.552400
4624.390000, 20.490800
4625.190000, 20.428900
4626.000000, 20.365800
4626.800000, 20.300400
4627.600000, 20.235000
4628.410000, 20.166700
4629.210000, 20.097500
4630.020000, 20.027800
4630.820000, 19.955100
4631.620000, 19.882400
4632.430000, 19.808100
4633.230000, 19.732700
4634.030000, 19.657400
4634.840000, 19.580000
4635.640000, 19.502600
4636.440000, 19.424100
4637.250000, 19.344100
4638.050000, 19.264100
4638.850000, 19.180800
4639.660000, 19.097000
4640.460000, 19.012300
4641.260000, 18.924900
4642.070000, 18.837600
4642.870000, 18.748600
4643.680000, 18.658800
4644.480000, 18.568800
4645.280000, 18.477100
4646.090000, 18.385500
4646.890000, 18.292700
4647.690000, 18.198900
4648.500000, 18.105200
4649.300000, 18.009400
4650.100000, 17.913400
4650.910000, 17.816900
4651.710000, 17.719300
4652.510000, 17.621800
4653.320000, 17.523200
4654.120000, 17.424200
4654.930000, 17.325000
4655.730000, 17.224000
4656.530000, 17.123000
4657.340000, 17.020700
4658.140000, 16.917100
4658.940000, 16.813600
4659.750000, 16.708200
4660.550000, 16.602700
4661.350000, 16.497000
4662.160000, 16.390800
4662.960000, 16.284700
4663.760000, 16.178500
4664.570000, 16.072200
4665.370000, 15.965900
4666.170000, 15.858900
4666.980000, 15.751900
4667.780000, 15.644200
4668.590000, 15.535700
4669.390000, 15.427300
4670.190000, 15.317700
4671.000000, 15.208000
4671.800000, 15.098100
4672.600000, 14.987600
4673.410000, 14.877100
4674.210000, 14.766500
4675.010000, 14.655900
4675.820000, 14.545200
4676.620000, 14.434400
4677.420000, 14.323700
4678.230000, 14.212800
4679.030000, 14.101600
4679.830000, 13.990500
4680.640000, 13.878600
4681.440000, 13.766500
4682.250000, 13.654300
4683.050000, 13.541300
4683.850000, 13.428300
4684.660000, 13.314800
4685.460000, 13.200800
4686.260000, 13.086900
4687.070000, 12.972300
4687.870000, 12.857600
4688.670000, 12.743000
4689.480000, 12.628500
4690.280000, 12.514000
4691.080000, 12.400000
4691.890000, 12.286500
4692.690000, 12.173000
4693.500000, 12.060500
4694.300000, 11.948200
4695.100000, 11.836000
4695.910000, 11.724000
4696.710000, 11.612000
4697.510000, 11.499200
4698.320000, 11.386000
4699.120000, 11.272800
4699.920000, 11.157900
4700.730000, 11.043000
4701.530000, 10.928100
4702.330000, 10.813200
4703.140000, 10.698300
4703.940000, 10.584200
4704.740000, 10.470500
4705.550000, 10.356900
4706.350000, 10.243600
4707.160000, 10.130400
4707.960000, 10.016900
4708.760000, 9.902980
4709.570000, 9.789100
4710.370000, 9.674550
4711.170000, 9.559790
4711.980000, 9.445030
4712.780000, 9.329910
4713.580000, 9.214830
4714.390000, 9.099900
4715.190000, 8.985170
4715.990000, 8.870470
4716.800000, 8.756270
4717.600000, 8.642280
4718.410000, 8.528370
4719.210000, 8.415020
4720.010000, 8.301710
4720.820000, 8.188710
4721.620000, 8.076150
4722.420000, 7.963640
4723.230000, 7.851760
4724.030000, 7.740160
4724.830000, 7.628620
4725.640000, 7.517460
4726.440000, 7.406350
4727.240000, 7.295200
4728.050000, 7.183970
4728.850000, 7.072780
4729.650000, 6.961650
4730.460000, 6.850560
4731.260000, 6.739520
4732.070000, 6.629190
4732.870000, 6.518900
4733.670000, 6.409060
4734.480000, 6.300180
4735.280000, 6.191330
4736.080000, 6.083560
4736.890000, 5.976470
4737.690000, 5.869410
4738.490000, 5.763450
4739.300000, 5.657610
4740.100000, 5.551900
4740.900000, 5.446520
4741.710000, 5.341190
4742.510000, 5.236350
4743.310000, 5.131950
4744.120000, 5.027590
4744.920000, 4.924930
4745.730000, 4.822640
4746.530000, 4.720670
4747.330000, 4.620620
4748.140000, 4.520610
4748.940000, 4.421450
4749.740000, 4.323400
4750.550000, 4.225380
4751.350000, 4.128990
4752.150000, 4.033240
4752.960000, 3.937560
4753.760000, 3.844500
4754.560000, 3.751470
4755.370000, 3.659310
4756.170000, 3.569090
4756.980000, 3.478900
4757.780000, 3.390250
4758.580000, 3.302700
4759.390000, 3.215170
4760.190000, 3.129900
4760.990000, 3.044990
4761.800000, 2.960600
4762.600000, 2.879080
4763.400000, 2.797590
4764.210000, 2.717800
4765.010000, 2.640300
4765.810000, 2.562820
4766.620000, 2.487770
4767.420000, 2.413750
4768.220000, 2.339760
4769.030000, 2.268320
4769.830000, 2.196980
4770.640000, 2.126240
4771.440000, 2.057310
4772.240000, 1.988410
4773.050000, 1.921230
4773.850000, 1.855670
4774.650000, 1.790130
4775.460000, 1.728230
4776.260000, 1.667380
4777.060000, 1.606740
4777.870000, 1.550600
4778.670000, 1.494480
4779.470000, 1.439400
4780.280000, 1.386690
4781.080000, 1.334010
4781.880000, 1.282790
4782.690000, 1.232720
4783.490000, 1.182670
4784.300000, 1.135350
4785.100000, 1.088670
4785.900000, 1.042300
4786.710000, 0.999972
4787.510000, 0.957656
4788.310000, 0.916674
4789.120000, 0.878512
4789.920000, 0.840364
4790.720000, 0.804253
4791.530000, 0.769697
4792.330000, 0.735153
4793.130000, 0.703184
4793.940000, 0.671818
4794.740000, 0.640603
4795.550000, 0.611812
4796.350000, 0.583031
4797.150000, 0.554948
4797.960000, 0.528521
4798.760000, 0.502102
4799.560000, 0.477081
4800.370000, 0.453286
4801.170000, 0.429499
4801.970000, 0.407763
4802.780000, 0.386653
4803.580000, 0.365550
4804.380000, 0.346844
4805.190000, 0.328144
4805.990000, 0.310023
4806.790000, 0.293821
4807.600000, 0.277625
4808.400000, 0.262640
4809.210000, 0.249094
4810.010000, 0.235552
4810.810000, 0.223094
4811.620000, 0.211143
4812.420000, 0.199196
4813.220000, 0.187501
4814.030000, 0.175836
4814.830000, 0.164230
4815.630000, 0.153026
4816.440000, 0.141825
4817.240000, 0.131114
4818.040000, 0.121348
4818.850000, 0.111585
4819.650000, 0.102856
4820.450000, 0.094955
4821.260000, 0.087058
4822.060000, 0.080623
4822.870000, 0.074634
4823.670000, 0.068648
4824.470000, 0.064642
4825.280000, 0.060685
4826.080000, 0.056999
4826.880000, 0.054518
4827.690000, 0.052038
4828.490000, 0.049612
4829.290000, 0.047271
4830.100000, 0.044931
4830.900000, 0.042268
4831.700000, 0.039379
4832.510000, 0.036492
4833.310000, 0.033378
4834.120000, 0.030203
4834.920000, 0.027029
4835.720000, 0.023826
4836.530000, 0.020623
4837.330000, 0.017495
4838.130000, 0.014707
4838.940000, 0.011920
4839.740000, 0.009634
4840.540000, 0.008212
4841.350000, 0.006790
4842.150000, 0.006178
4842.950000, 0.006216
4843.760000, 0.006253
4844.560000, 0.006257
4845.360000, 0.006250
4846.170000, 0.006243
4846.970000, 0.005247
4847.780000, 0.004170
4848.580000, 0.003087
4849.380000, 0.001951
4850.190000, 0.000816
4850.990000, 0.000001
4851.790000, 0.000001
4852.600000, 0.000001
4853.400000, 0.000036
4854.200000, 0.000111
4855.010000, 0.000187
4855.810000, 0.000430
4856.610000, 0.000772
4857.420000, 0.001114
4858.220000, 0.000857
4859.030000, 0.000451
4859.830000, 0.000046
4860.630000, 0.000022
4861.440000, 0.000011
4862.240000, 0.000044
4863.040000, 0.000373
4863.850000, 0.000702
4864.650000, 0.000989
4865.450000, 0.001175
4866.260000, 0.001361
4867.060000, 0.001230
4867.860000, 0.000716
4868.670000, 0.000202
4869.470000, 0.000001
4870.270000, 0.000001
4871.080000, 0.000001
4871.880000, 0.000169
4872.690000, 0.000390
4873.490000, 0.000610
4874.290000, 0.001941
4875.100000, 0.003375
4875.900000, 0.004774
4876.700000, 0.005669
4877.510000, 0.006564
4878.310000, 0.007282
4879.110000, 0.007331
4879.920000, 0.007379
4880.720000, 0.007212
4881.520000, 0.006647
4882.330000, 0.006082
4883.130000, 0.005471
4883.930000, 0.004812
4884.740000, 0.004153
4885.540000, 0.003724
4886.350000, 0.003429
4887.150000, 0.003135
4887.950000, 0.002921
4888.760000, 0.002732
4889.560000, 0.002543
4890.360000, 0.001734
4891.170000, 0.000856
4891.970000, 0.000001
4892.770000, 0.000001
4893.580000, 0.000001
4894.380000, 0.000001
4895.180000, 0.000001
4895.990000, 0.000001
4896.790000, 0.000001
4897.600000, 0.000001
4898.400000, 0.000001
4899.200000, 0.000001
4900.010000, 0.000001
4900.810000, 0.000001
4901.610000, 0.000119
4902.420000, 0.000346
4903.220000, 0.000572
4904.020000, 0.000817
4904.830000, 0.001072
4905.630000, 0.001327
4906.430000, 0.001031
4907.240000, 0.000550
4908.040000, 0.000069
4908.840000, 0.000001
4909.650000, 0.000001
4910.450000, 0.000001
4911.260000, 0.000001
4912.060000, 0.000001
4912.860000, 0.000001
4913.670000, 0.000001
4914.470000, 0.000001
4915.270000, 0.000001
4916.080000, 0.000001
4916.880000, 0.000001
4917.680000, 0.000001
4918.490000, 0.000001
4919.290000, 0.000001
4920.090000, 0.000001
4920.900000, 0.000001
4921.700000, 0.000001
4922.500000, 0.000001
4923.310000, 0.000001
4924.110000, 0.000001
4924.920000, 0.000001
4925.720000, 0.000001
4926.520000, 0.000001
4927.330000, 0.000001
4928.130000, 0.000001
4928.930000, 0.000001
4929.740000, 0.000001
4930.540000, 0.000001
4931.340000, 0.000001
4932.150000, 0.000001
4932.950000, 0.000001
4933.750000, 0.000001
4934.560000, 0.000001
4935.360000, 0.000001
4936.170000, 0.000001
4936.970000, 0.000001
4937.770000, 0.000001
4938.580000, 0.000001
4939.380000, 0.000001
4940.180000, 0.000001
4940.990000, 0.000001
4941.790000, 0.000001
4942.590000, 0.000001
4943.400000, 0.000001
4944.200000, 0.000001
4945.000000, 0.000001
4945.810000, 0.000001
4946.610000, 0.000001
4947.410000, 0.000001
4948.220000, 0.000001
4949.020000, 0.000001
4949.830000, 0.000001
4950.630000, 0.000001
4951.430000, 0.000001
4952.240000, 0.000001
4953.040000, 0.000001
4953.840000, 0.000001
4954.650000, 0.000001
4955.450000, 0.000001
4956.250000, 0.000001
4957.060000, 0.000001
4957.860000, 0.000001
4958.660000, 0.000001
4959.470000, 0.000001
4960.270000, 0.000001
4961.080000, 0.000001
4961.880000, 0.000001
4962.680000, 0.000001
4963.490000, 0.000001
4964.290000, 0.000001
4965.090000, 0.000001
4965.900000, 0.000001
4966.700000, 0.000001
4967.500000, 0.000001
4968.310000, 0.000001
4969.110000, 0.000001
4969.910000, 0.000001
4970.720000, 0.000001
4971.520000, 0.000001
4972.320000, 0.000001
4973.130000, 0.000001
4973.930000, 0.000001
4974.740000, 0.000001
4975.540000, 0.000001
4976.340000, 0.000001
4977.150000, 0.000001
4977.950000, 0.000001
4978.750000, 0.000001
4979.560000, 0.000001
4980.360000, 0.000001
4981.160000, 0.000001
4981.970000, 0.000001
4982.770000, 0.000001
4983.570000, 0.000001
4984.380000, 0.000001
4985.180000, 0.000001
4985.980000, 0.000001
4986.790000, 0.000001
4987.590000, 0.000001
4988.400000, 0.000001
4989.200000, 0.000001
4990.000000, 0.000001
4990.810000, 0.000001
4991.610000, 0.000001
4992.410000, 0.000001
4993.220000, 0.000001
4994.020000, 0.000219
4994.820000, 0.000440
4995.630000, 0.000660
4996.430000, 0.001142
4997.230000, 0.001625
4998.040000, 0.002109
4998.840000, 0.002470
4999.650000, 0.002832
5000.000000, 0.003194
