# Wavelength  (nm), Transmission (%)
200.000000, 0.000127
201.000000, 0.000116
202.000000, 0.000116
203.000000, 0.000107
204.000000, 0.000080
205.000000, 0.000052
206.000000, 0.000030
207.000000, 0.000034
208.000000, 0.000007
209.000000, 0.000017
210.000000, 0.000026
211.000000, 0.000013
212.000000, 0.000002
213.000000, 0.000008
214.000000, 0.000007
215.000000, 0.000008
216.000000, 0.000004
217.000000, 0.000003
218.000000, 0.000009
219.000000, 0.000019
220.000000, 0.000010
221.000000, 0.000007
222.000000, 0.000009
223.000000, 0.000008
224.000000, 0.000002
225.000000, 0.000002
226.000000, 0.000005
227.000000, 0.000005
228.000000, 0.000017
229.000000, 0.000015
230.000000, 0.000012
231.000000, 0.000011
232.000000, 0.000013
233.000000, 0.000014
234.000000, 0.000011
235.000000, 0.000011
236.000000, 0.000009
237.000000, 0.000013
238.000000, 0.000026
239.000000, 0.000040
240.000000, 0.000031
241.000000, 0.000015
242.000000, 0.000001
243.000000, 0.000022
244.000000, 0.000035
245.000000, 0.000046
246.000000, 0.000026
247.000000, 0.000016
248.000000, 0.000007
249.000000, 0.000026
250.000000, 0.000033
251.000000, 0.000036
252.000000, 0.000016
253.000000, 0.000013
254.000000, 0.000007
255.000000, 0.000009
256.000000, 0.000020
257.000000, 0.000006
258.000000, 0.000018
259.000000, 0.000024
260.000000, 0.000001
261.000000, 0.000002
262.000000, 0.000000
263.000000, 0.000029
264.000000, 0.000035
265.000000, 0.000031
266.000000, 0.000002
267.000000, 0.000001
268.000000, 0.000007
269.000000, 0.000034
270.000000, 0.000031
271.000000, 0.000035
272.000000, 0.000024
273.000000, 0.000042
274.000000, 0.000052
275.000000, 0.000064
276.000000, 0.000058
277.000000, 0.000040
278.000000, 0.000021
279.000000, 0.000012
280.000000, 0.000029
281.000000, 0.000053
282.000000, 0.000058
283.000000, 0.000041
284.000000, 0.000025
285.000000, 0.000033
286.000000, 0.000057
287.000000, 0.000070
288.000000, 0.000051
289.000000, 0.000032
290.000000, 0.000013
291.000000, 0.000012
292.000000, 0.000019
293.000000, 0.000032
294.000000, 0.000027
295.000000, 0.000002
296.000000, 0.000005
297.000000, 0.000021
298.000000, 0.000067
299.000000, 0.000063
300.000000, 0.000062
301.000000, 0.000027
302.000000, 0.000043
303.000000, 0.000046
304.000000, 0.000075
305.000000, 0.000069
306.000000, 0.000064
307.000000, 0.000025
308.000000, 0.000020
309.000000, 0.000021
310.000000, 0.000069
311.000000, 0.000057
312.000000, 0.000043
313.000000, 0.000015
314.000000, 0.000027
315.000000, 0.000028
316.000000, 0.000024
317.000000, 0.000001
318.000000, 0.000001
319.000000, 0.000015
320.000000, 0.000014
321.000000, 0.000004
322.000000, 0.000011
323.000000, 0.000024
324.000000, 0.000013
325.000000, 0.000012
326.000000, 0.000014
327.000000, 0.000019
328.000000, 0.000013
329.000000, 0.000012
330.000000, 0.000011
331.000000, 0.000004
332.000000, 0.000008
333.000000, 0.000006
334.000000, 0.000016
335.000000, 0.000008
336.000000, 0.000012
337.000000, 0.000006
338.000000, 0.000008
339.000000, 0.000005
340.000000, 0.000027
341.000000, 0.000020
342.000000, 0.000017
343.000000, 0.000013
344.000000, 0.000007
345.000000, 0.000013
346.000000, 0.000013
347.000000, 0.000009
348.000000, 0.000022
349.000000, 0.000005
350.000000, 0.000005
351.000000, 0.000002
352.000000, 0.000017
353.000000, 0.000018
354.000000, 0.000021
355.000000, 0.000003
356.000000, 0.000005
357.000000, 0.000012
358.000000, 0.000037
359.000000, 0.000038
360.000000, 0.000034
361.000000, 0.000028
362.000000, 0.000021
363.000000, 0.000009
364.000000, 0.000005
365.000000, 0.000011
366.000000, 0.000029
367.000000, 0.000030
368.000000, 0.000030
369.000000, 0.000021
370.000000, 0.000033
371.000000, 0.000051
372.000000, 0.000064
373.000000, 0.000075
374.000000, 0.000067
375.000000, 0.000078
376.000000, 0.000086
377.000000, 0.000081
378.000000, 0.000067
379.000000, 0.000042
380.000000, 0.000041
381.000000, 0.000035
382.000000, 0.000034
383.000000, 0.000040
384.000000, 0.000070
385.000000, 0.000102
386.000000, 0.000142
387.000000, 0.000167
388.000000, 0.000208
389.000000, 0.000249
390.000000, 0.000316
391.000000, 0.000385
392.000000, 0.000465
393.000000, 0.000536
394.000000, 0.000604
395.000000, 0.000684
396.000000, 0.000782
397.000000, 0.000899
398.000000, 0.001011
399.000000, 0.001114
400.000000, 0.001198
401.000000, 0.001276
402.000000, 0.001361
403.000000, 0.001459
404.000000, 0.001541
405.000000, 0.001610
406.000000, 0.001661
407.000000, 0.001715
408.000000, 0.001768
409.000000, 0.001818
410.000000, 0.001869
411.000000, 0.001921
412.000000, 0.001975
413.000000, 0.002046
414.000000, 0.002107
415.000000, 0.002193
416.000000, 0.002265
417.000000, 0.002357
418.000000, 0.002438
419.000000, 0.002544
420.000000, 0.002640
421.000000, 0.002750
422.000000, 0.002852
423.000000, 0.002967
424.000000, 0.003071
425.000000, 0.003188
426.000000, 0.003289
427.000000, 0.003381
428.000000, 0.003463
429.000000, 0.003557
430.000000, 0.003648
431.000000, 0.003721
432.000000, 0.003757
433.000000, 0.003789
434.000000, 0.003804
435.000000, 0.003827
436.000000, 0.003834
437.000000, 0.003841
438.000000, 0.003837
439.000000, 0.003846
440.000000, 0.003876
441.000000, 0.003942
442.000000, 0.004036
443.000000, 0.004148
444.000000, 0.004258
445.000000, 0.004382
446.000000, 0.004528
447.000000, 0.004703
448.000000, 0.004903
449.000000, 0.005102
450.000000, 0.005301
451.000000, 0.005490
452.000000, 0.005696
453.000000, 0.005920
454.000000, 0.006149
455.000000, 0.006361
456.000000, 0.006546
457.000000, 0.006703
458.000000, 0.006860
459.000000, 0.007017
460.000000, 0.007182
461.000000, 0.007312
462.000000, 0.007391
463.000000, 0.007442
464.000000, 0.007487
465.000000, 0.007536
466.000000, 0.007573
467.000000, 0.007586
468.000000, 0.007567
469.000000, 0.007526
470.000000, 0.007481
471.000000, 0.007446
472.000000, 0.007411
473.000000, 0.007365
474.000000, 0.007302
475.000000, 0.007233
476.000000, 0.007168
477.000000, 0.007118
478.000000, 0.007069
479.000000, 0.007001
480.000000, 0.006902
481.000000, 0.006796
482.000000, 0.006713
483.000000, 0.006665
484.000000, 0.006622
485.000000, 0.006559
486.000000, 0.006473
487.000000, 0.006405
488.000000, 0.006339
489.000000, 0.006288
490.000000, 0.006234
491.000000, 0.006183
492.000000, 0.006126
493.000000, 0.006069
494.000000, 0.006030
495.000000, 0.006016
496.000000, 0.006002
497.000000, 0.005974
498.000000, 0.005925
499.000000, 0.005881
500.000000, 0.005848
501.000000, 0.005843
502.000000, 0.005842
503.000000, 0.005832
504.000000, 0.005796
505.000000, 0.005765
506.000000, 0.005752
507.000000, 0.005769
508.000000, 0.005785
509.000000, 0.005799
510.000000, 0.005803
511.000000, 0.005814
512.000000, 0.005837
513.000000, 0.005879
514.000000, 0.005927
515.000000, 0.005972
516.000000, 0.006004
517.000000, 0.006039
518.000000, 0.006084
519.000000, 0.006151
520.000000, 0.006230
521.000000, 0.006294
522.000000, 0.006338
523.000000, 0.006383
524.000000, 0.006458
525.000000, 0.006557
526.000000, 0.006648
527.000000, 0.006725
528.000000, 0.006807
529.000000, 0.006899
530.000000, 0.007016
531.000000, 0.007138
532.000000, 0.007251
533.000000, 0.007348
534.000000, 0.007433
535.000000, 0.007521
536.000000, 0.007622
537.000000, 0.007728
538.000000, 0.007831
539.000000, 0.007923
540.000000, 0.008007
541.000000, 0.008090
542.000000, 0.008156
543.000000, 0.008208
544.000000, 0.008261
545.000000, 0.008320
546.000000, 0.008378
547.000000, 0.008411
548.000000, 0.008428
549.000000, 0.008443
550.000000, 0.008455
551.000000, 0.008466
552.000000, 0.008467
553.000000, 0.008458
554.000000, 0.008429
555.000000, 0.008385
556.000000, 0.008351
557.000000, 0.008315
558.000000, 0.008264
559.000000, 0.008191
560.000000, 0.008109
561.000000, 0.008029
562.000000, 0.007958
563.000000, 0.007883
564.000000, 0.007799
565.000000, 0.007722
566.000000, 0.007640
567.000000, 0.007563
568.000000, 0.007478
569.000000, 0.007387
570.000000, 0.007289
571.000000, 0.007198
572.000000, 0.007112
573.000000, 0.007032
574.000000, 0.006943
575.000000, 0.006859
576.000000, 0.006788
577.000000, 0.006720
578.000000, 0.006657
579.000000, 0.006586
580.000000, 0.006538
581.000000, 0.006500
582.000000, 0.006465
583.000000, 0.006417
584.000000, 0.006373
585.000000, 0.006353
586.000000, 0.006343
587.000000, 0.006341
588.000000, 0.006338
589.000000, 0.006355
590.000000, 0.006378
591.000000, 0.006404
592.000000, 0.006438
593.000000, 0.006478
594.000000, 0.006541
595.000000, 0.006591
596.000000, 0.006666
597.000000, 0.006743
598.000000, 0.006847
599.000000, 0.006942
600.000000, 0.007059
601.000000, 0.007137
602.000000, 0.007218
603.000000, 0.007291
604.000000, 0.007408
605.000000, 0.007528
606.000000, 0.007661
607.000000, 0.007770
608.000000, 0.007890
609.000000, 0.008000
610.000000, 0.008150
611.000000, 0.008277
612.000000, 0.008430
613.000000, 0.008546
614.000000, 0.008680
615.000000, 0.008799
616.000000, 0.008948
617.000000, 0.009100
618.000000, 0.009256
619.000000, 0.009377
620.000000, 0.009499
621.000000, 0.009606
622.000000, 0.009737
623.000000, 0.009857
624.000000, 0.009995
625.000000, 0.010119
626.000000, 0.010234
627.000000, 0.010323
628.000000, 0.010407
629.000000, 0.010500
630.000000, 0.010595
631.000000, 0.010706
632.000000, 0.010795
633.000000, 0.010881
634.000000, 0.010939
635.000000, 0.011015
636.000000, 0.011107
637.000000, 0.011215
638.000000, 0.011304
639.000000, 0.011382
640.000000, 0.011467
641.000000, 0.011574
642.000000, 0.011691
643.000000, 0.011812
644.000000, 0.011945
645.000000, 0.012079
646.000000, 0.012223
647.000000, 0.012382
648.000000, 0.012535
649.000000, 0.012705
650.000000, 0.012893
651.000000, 0.013115
652.000000, 0.013328
653.000000, 0.013529
654.000000, 0.013766
655.000000, 0.014071
656.000000, 0.014374
657.000000, 0.014676
658.000000, 0.014990
659.000000, 0.015386
660.000000, 0.015839
661.000000, 0.016318
662.000000, 0.016781
663.000000, 0.017251
664.000000, 0.017774
665.000000, 0.018358
666.000000, 0.019020
667.000000, 0.019693
668.000000, 0.020457
669.000000, 0.021226
670.000000, 0.022051
671.000000, 0.022930
672.000000, 0.023938
673.000000, 0.024975
674.000000, 0.026064
675.000000, 0.027214
676.000000, 0.028500
677.000000, 0.029889
678.000000, 0.031384
679.000000, 0.033007
680.000000, 0.034634
681.000000, 0.036252
682.000000, 0.037947
683.000000, 0.039764
684.000000, 0.041803
685.000000, 0.043816
686.000000, 0.045951
687.000000, 0.048006
688.000000, 0.050262
689.000000, 0.052563
690.000000, 0.055071
691.000000, 0.057484
692.000000, 0.059871
693.000000, 0.062180
694.000000, 0.064549
695.000000, 0.067031
696.000000, 0.069513
697.000000, 0.071943
698.000000, 0.074416
699.000000, 0.076979
700.000000, 0.079569
701.000000, 0.081986
702.000000, 0.084551
703.000000, 0.086935
704.000000, 0.089396
705.000000, 0.091501
706.000000, 0.093837
707.000000, 0.096211
708.000000, 0.098718
709.000000, 0.101019
710.000000, 0.103084
711.000000, 0.104967
712.000000, 0.107076
713.000000, 0.109162
714.000000, 0.111366
715.000000, 0.113417
716.000000, 0.115432
717.000000, 0.117361
718.000000, 0.119052
719.000000, 0.121135
720.000000, 0.122911
721.000000, 0.124934
722.000000, 0.126465
723.000000, 0.128092
724.000000, 0.129747
725.000000, 0.131351
726.000000, 0.133097
727.000000, 0.134658
728.000000, 0.136205
729.000000, 0.137913
730.000000, 0.139282
731.000000, 0.140887
732.000000, 0.142289
733.000000, 0.143573
734.000000, 0.144745
735.000000, 0.146050
736.000000, 0.147406
737.000000, 0.148860
738.000000, 0.150085
739.000000, 0.151354
740.000000, 0.152330
741.000000, 0.153272
742.000000, 0.154566
743.000000, 0.155713
744.000000, 0.157082
745.000000, 0.157896
746.000000, 0.159015
747.000000, 0.159762
748.000000, 0.160901
749.000000, 0.162066
750.000000, 0.163247
751.000000, 0.164303
752.000000, 0.165129
753.000000, 0.165975
754.000000, 0.166945
755.000000, 0.167940
756.000000, 0.168998
757.000000, 0.169696
758.000000, 0.170307
759.000000, 0.170858
760.000000, 0.171868
761.000000, 0.172670
762.000000, 0.173457
763.000000, 0.173896
764.000000, 0.174590
765.000000, 0.175352
766.000000, 0.176147
767.000000, 0.176698
768.000000, 0.177495
769.000000, 0.177901
770.000000, 0.178641
771.000000, 0.178855
772.000000, 0.179318
773.000000, 0.179715
774.000000, 0.180282
775.000000, 0.180888
776.000000, 0.181450
777.000000, 0.181991
778.000000, 0.182507
779.000000, 0.182738
780.000000, 0.183115
781.000000, 0.183676
782.000000, 0.183888
783.000000, 0.183904
784.000000, 0.183939
785.000000, 0.184378
786.000000, 0.184595
787.000000, 0.184882
788.000000, 0.185234
789.000000, 0.185735
790.000000, 0.185965
791.000000, 0.186303
792.000000, 0.186456
793.000000, 0.186544
794.000000, 0.186504
795.000000, 0.186517
796.000000, 0.186641
797.000000, 0.186840
798.000000, 0.187069
799.000000, 0.187232
800.000000, 0.187503
801.000000, 0.187375
802.000000, 0.187230
803.000000, 0.186813
804.000000, 0.186747
805.000000, 0.186910
806.000000, 0.186933
807.000000, 0.186767
808.000000, 0.186512
809.000000, 0.186368
810.000000, 0.186615
811.000000, 0.186897
812.000000, 0.187080
813.000000, 0.186803
814.000000, 0.186492
815.000000, 0.186250
816.000000, 0.186034
817.000000, 0.185781
818.000000, 0.185542
819.000000, 0.185673
820.000000, 0.185379
821.000000, 0.185142
822.000000, 0.184743
823.000000, 0.184611
824.000000, 0.184713
825.000000, 0.184840
826.000000, 0.184677
827.000000, 0.184446
828.000000, 0.184345
829.000000, 0.184439
830.000000, 0.184136
831.000000, 0.183709
832.000000, 0.183337
833.000000, 0.183074
834.000000, 0.182671
835.000000, 0.182215
836.000000, 0.181900
837.000000, 0.181631
838.000000, 0.181256
839.000000, 0.180858
840.000000, 0.180471
841.000000, 0.180287
842.000000, 0.180077
843.000000, 0.179715
844.000000, 0.179356
845.000000, 0.178681
846.000000, 0.177979
847.000000, 0.177163
848.000000, 0.176691
849.000000, 0.176529
850.000000, 0.176643
851.000000, 0.176618
852.000000, 0.176545
853.000000, 0.176217
854.000000, 0.175894
855.000000, 0.174616
856.000000, 0.173253
857.000000, 0.172291
858.000000, 0.172405
859.000000, 0.172236
860.000000, 0.171393
861.000000, 0.169101
862.000000, 0.166990
863.000000, 0.165614
864.000000, 0.166423
865.000000, 0.168634
866.000000, 0.170969
867.000000, 0.170865
868.000000, 0.168002
869.000000, 0.164633
870.000000, 0.162591
871.000000, 0.161994
872.000000, 0.162010
873.000000, 0.162958
874.000000, 0.164262
875.000000, 0.164781
876.000000, 0.164082
877.000000, 0.162439
878.000000, 0.160479
879.000000, 0.159291
880.000000, 0.159682
881.000000, 0.160925
882.000000, 0.162010
883.000000, 0.161130
884.000000, 0.158568
885.000000, 0.156105
886.000000, 0.156071
887.000000, 0.157992
888.000000, 0.158499
889.000000, 0.156612
890.000000, 0.153947
891.000000, 0.152798
892.000000, 0.153369
893.000000, 0.154463
894.000000, 0.155102
895.000000, 0.153881
896.000000, 0.151368
897.000000, 0.149329
898.000000, 0.149055
899.000000, 0.150337
900.000000, 0.151328
901.000000, 0.150336
902.000000, 0.147480
903.000000, 0.145254
904.000000, 0.145892
905.000000, 0.148149
906.000000, 0.148740
907.000000, 0.147349
908.000000, 0.146107
909.000000, 0.145341
910.000000, 0.143822
911.000000, 0.141784
912.000000, 0.141249
913.000000, 0.141578
914.000000, 0.141100
915.000000, 0.139579
916.000000, 0.138946
917.000000, 0.140100
918.000000, 0.141936
919.000000, 0.142471
920.000000, 0.140425
921.000000, 0.137691
922.000000, 0.136859
923.000000, 0.138146
924.000000, 0.138840
925.000000, 0.136780
926.000000, 0.133964
927.000000, 0.133265
928.000000, 0.135106
929.000000, 0.136518
930.000000, 0.134760
931.000000, 0.131065
932.000000, 0.128695
933.000000, 0.129385
934.000000, 0.132167
935.000000, 0.133419
936.000000, 0.132183
937.000000, 0.130102
938.000000, 0.129519
939.000000, 0.129900
940.000000, 0.130190
941.000000, 0.129471
942.000000, 0.127793
943.000000, 0.126324
944.000000, 0.126101
945.000000, 0.126902
946.000000, 0.127776
947.000000, 0.127346
948.000000, 0.125693
949.000000, 0.124264
950.000000, 0.124253
951.000000, 0.124818
952.000000, 0.123968
953.000000, 0.122483
954.000000, 0.121847
955.000000, 0.122377
956.000000, 0.122644
957.000000, 0.122878
958.000000, 0.122257
959.000000, 0.121140
960.000000, 0.120258
961.000000, 0.120022
962.000000, 0.120871
963.000000, 0.121256
964.000000, 0.120862
965.000000, 0.120547
966.000000, 0.120256
967.000000, 0.119604
968.000000, 0.117597
969.000000, 0.116410
970.000000, 0.116537
971.000000, 0.117939
972.000000, 0.118693
973.000000, 0.118459
974.000000, 0.117470
975.000000, 0.117072
976.000000, 0.116944
977.000000, 0.116611
978.000000, 0.116351
979.000000, 0.116229
980.000000, 0.115495
981.000000, 0.113838
982.000000, 0.113138
983.000000, 0.113388
984.000000, 0.113833
985.000000, 0.114846
986.000000, 0.116028
987.000000, 0.116366
988.000000, 0.114624
989.000000, 0.112480
990.000000, 0.112290
991.000000, 0.112794
992.000000, 0.112893
993.000000, 0.111310
994.000000, 0.109678
995.000000, 0.109959
996.000000, 0.110913
997.000000, 0.111767
998.000000, 0.111284
999.000000, 0.111590
1000.000000, 0.111982
1001.000000, 0.111797
1002.000000, 0.110307
1003.000000, 0.109006
1004.000000, 0.109815
1005.000000, 0.111203
1006.000000, 0.112145
1007.000000, 0.110888
1008.000000, 0.109150
1009.000000, 0.108267
1010.000000, 0.108949
1011.000000, 0.110027
1012.000000, 0.110689
1013.000000, 0.109857
1014.000000, 0.108458
1015.000000, 0.107292
1016.000000, 0.107937
1017.000000, 0.109612
1018.000000, 0.110373
1019.000000, 0.109640
1020.000000, 0.107735
1021.000000, 0.106667
1022.000000, 0.107161
1023.000000, 0.108610
1024.000000, 0.109592
1025.000000, 0.108762
1026.000000, 0.107763
1027.000000, 0.107132
1028.000000, 0.108034
1029.000000, 0.109019
1030.000000, 0.109620
1031.000000, 0.108912
1032.000000, 0.107554
1033.000000, 0.106142
1034.000000, 0.105060
1035.000000, 0.105871
1036.000000, 0.107330
1037.000000, 0.108538
1038.000000, 0.108086
1039.000000, 0.106857
1040.000000, 0.105996
1041.000000, 0.106679
1042.000000, 0.108123
1043.000000, 0.109164
1044.000000, 0.108703
1045.000000, 0.107614
1046.000000, 0.106828
1047.000000, 0.105542
1048.000000, 0.104851
1049.000000, 0.106157
1050.000000, 0.108157
1051.000000, 0.109863
1052.000000, 0.109307
1053.000000, 0.108334
1054.000000, 0.107084
1055.000000, 0.106095
1056.000000, 0.105413
1057.000000, 0.107195
1058.000000, 0.109093
1059.000000, 0.110957
1060.000000, 0.110843
1061.000000, 0.110261
1062.000000, 0.109450
1063.000000, 0.108684
1064.000000, 0.107740
1065.000000, 0.106692
1066.000000, 0.105242
1067.000000, 0.104942
1068.000000, 0.107052
1069.000000, 0.109616
1070.000000, 0.111357
1071.000000, 0.111425
1072.000000, 0.111330
1073.000000, 0.110996
1074.000000, 0.109966
1075.000000, 0.108475
1076.000000, 0.107513
1077.000000, 0.109232
1078.000000, 0.111469
1079.000000, 0.113181
1080.000000, 0.112248
1081.000000, 0.111076
1082.000000, 0.109993
1083.000000, 0.109159
1084.000000, 0.110423
1085.000000, 0.112285
1086.000000, 0.113831
1087.000000, 0.113672
1088.000000, 0.112964
1089.000000, 0.112226
1090.000000, 0.111213
1091.000000, 0.110625
1092.000000, 0.112833
1093.000000, 0.115049
1094.000000, 0.117268
1095.000000, 0.116600
1096.000000, 0.115587
1097.000000, 0.114083
1098.000000, 0.113216
1099.000000, 0.112488
1100.000000, 0.112704
1101.000000, 0.114972
1102.000000, 0.117374
1103.000000, 0.119659
1104.000000, 0.119819
1105.000000, 0.120072
1106.000000, 0.119543
1107.000000, 0.119227
1108.000000, 0.119197
1109.000000, 0.119285
1110.000000, 0.118796
1111.000000, 0.118469
1112.000000, 0.117923
1113.000000, 0.117613
1114.000000, 0.117689
1115.000000, 0.117597
1116.000000, 0.117392
1117.000000, 0.116487
1118.000000, 0.115686
1119.000000, 0.115062
1120.000000, 0.115968
1121.000000, 0.119521
1122.000000, 0.122730
1123.000000, 0.124004
1124.000000, 0.123105
1125.000000, 0.123205
1126.000000, 0.126009
1127.000000, 0.129013
1128.000000, 0.130524
1129.000000, 0.128150
1130.000000, 0.123087
1131.000000, 0.119600
1132.000000, 0.120012
1133.000000, 0.125462
1134.000000, 0.128355
1135.000000, 0.127455
1136.000000, 0.124146
1137.000000, 0.125841
1138.000000, 0.128782
1139.000000, 0.131910
1140.000000, 0.131965
1141.000000, 0.132255
1142.000000, 0.132801
1143.000000, 0.133598
1144.000000, 0.134349
1145.000000, 0.134234
1146.000000, 0.133908
1147.000000, 0.133306
1148.000000, 0.133552
1149.000000, 0.135487
1150.000000, 0.138100
1151.000000, 0.140329
1152.000000, 0.140497
1153.000000, 0.140404
1154.000000, 0.140315
1155.000000, 0.140483
1156.000000, 0.140397
1157.000000, 0.140089
1158.000000, 0.139745
1159.000000, 0.139362
1160.000000, 0.138912
1161.000000, 0.139586
1162.000000, 0.142605
1163.000000, 0.146481
1164.000000, 0.149077
1165.000000, 0.150058
1166.000000, 0.150014
1167.000000, 0.150978
1168.000000, 0.151763
1169.000000, 0.153009
1170.000000, 0.153734
1171.000000, 0.154369
1172.000000, 0.154954
1173.000000, 0.155815
1174.000000, 0.156618
1175.000000, 0.157374
1176.000000, 0.158381
1177.000000, 0.159726
1178.000000, 0.161262
1179.000000, 0.161990
1180.000000, 0.162118
1181.000000, 0.161124
1182.000000, 0.160626
1183.000000, 0.160083
1184.000000, 0.161883
1185.000000, 0.166864
1186.000000, 0.174572
1187.000000, 0.183442
1188.000000, 0.187174
1189.000000, 0.181695
1190.000000, 0.173703
1191.000000, 0.167634
1192.000000, 0.168771
1193.000000, 0.169600
1194.000000, 0.170300
1195.000000, 0.171559
1196.000000, 0.175606
1197.000000, 0.179193
1198.000000, 0.181119
1199.000000, 0.179871
1200.000000, 0.179714
1201.000000, 0.182380
1202.000000, 0.185137
1203.000000, 0.186573
1204.000000, 0.186468
1205.000000, 0.189617
1206.000000, 0.193350
1207.000000, 0.195894
1208.000000, 0.195480
1209.000000, 0.194916
1210.000000, 0.195308
1211.000000, 0.196340
1212.000000, 0.197886
1213.000000, 0.199958
1214.000000, 0.202237
1215.000000, 0.204670
1216.000000, 0.204662
1217.000000, 0.202547
1218.000000, 0.200923
1219.000000, 0.201900
1220.000000, 0.205478
1221.000000, 0.209086
1222.000000, 0.210850
1223.000000, 0.210209
1224.000000, 0.209157
1225.000000, 0.209510
1226.000000, 0.212034
1227.000000, 0.214303
1228.000000, 0.217012
1229.000000, 0.220263
1230.000000, 0.223099
1231.000000, 0.224982
1232.000000, 0.225817
1233.000000, 0.227329
1234.000000, 0.228314
1235.000000, 0.229029
1236.000000, 0.231703
1237.000000, 0.237624
1238.000000, 0.243443
1239.000000, 0.246717
1240.000000, 0.247205
1241.000000, 0.247738
1242.000000, 0.248120
1243.000000, 0.248935
1244.000000, 0.252557
1245.000000, 0.259714
1246.000000, 0.267332
1247.000000, 0.272585
1248.000000, 0.271375
1249.000000, 0.266155
1250.000000, 0.261657
1251.000000, 0.261168
1252.000000, 0.265152
1253.000000, 0.269626
1254.000000, 0.274324
1255.000000, 0.278439
1256.000000, 0.279982
1257.000000, 0.279853
1258.000000, 0.280239
1259.000000, 0.283405
1260.000000, 0.287829
1261.000000, 0.289252
1262.000000, 0.287939
1263.000000, 0.287692
1264.000000, 0.291487
1265.000000, 0.298082
1266.000000, 0.304825
1267.000000, 0.309891
1268.000000, 0.310405
1269.000000, 0.306828
1270.000000, 0.303300
1271.000000, 0.303043
1272.000000, 0.306276
1273.000000, 0.312975
1274.000000, 0.322606
1275.000000, 0.332244
1276.000000, 0.338774
1277.000000, 0.341481
1278.000000, 0.343485
1279.000000, 0.344523
1280.000000, 0.345343
1281.000000, 0.345888
1282.000000, 0.350012
1283.000000, 0.357827
1284.000000, 0.365565
1285.000000, 0.370543
1286.000000, 0.373168
1287.000000, 0.376365
1288.000000, 0.379030
1289.000000, 0.381104
1290.000000, 0.383182
1291.000000, 0.385296
1292.000000, 0.388183
1293.000000, 0.391764
1294.000000, 0.396961
1295.000000, 0.403686
1296.000000, 0.409992
1297.000000, 0.413634
1298.000000, 0.412200
1299.000000, 0.408267
1300.000000, 0.406796
1301.000000, 0.410988
1302.000000, 0.419403
1303.000000, 0.427534
1304.000000, 0.435455
1305.000000, 0.444916
1306.000000, 0.455018
1307.000000, 0.457248
1308.000000, 0.453701
1309.000000, 0.449555
1310.000000, 0.449652
1311.000000, 0.452309
1312.000000, 0.455016
1313.000000, 0.459595
1314.000000, 0.465306
1315.000000, 0.469728
1316.000000, 0.475208
1317.000000, 0.480817
1318.000000, 0.488478
1319.000000, 0.495238
1320.000000, 0.501197
1321.000000, 0.507356
1322.000000, 0.513719
1323.000000, 0.519634
1324.000000, 0.525179
1325.000000, 0.531892
1326.000000, 0.540456
1327.000000, 0.549554
1328.000000, 0.559159
1329.000000, 0.570470
1330.000000, 0.579567
1331.000000, 0.577747
1332.000000, 0.569504
1333.000000, 0.562950
1334.000000, 0.567918
1335.000000, 0.577337
1336.000000, 0.588192
1337.000000, 0.598704
1338.000000, 0.609318
1339.000000, 0.612072
1340.000000, 0.612016
1341.000000, 0.618217
1342.000000, 0.632249
1343.000000, 0.638311
1344.000000, 0.628525
1345.000000, 0.623405
1346.000000, 0.638207
1347.000000, 0.665342
1348.000000, 0.679517
1349.000000, 0.672356
1350.000000, 0.644629
1351.000000, 0.616841
1352.000000, 0.618103
1353.000000, 0.673504
1354.000000, 0.748533
1355.000000, 0.778531
1356.000000, 0.729671
1357.000000, 0.638475
1358.000000, 0.578268
1359.000000, 0.605399
1360.000000, 0.696349
1361.000000, 0.772770
1362.000000, 0.800817
1363.000000, 0.788462
1364.000000, 0.763908
1365.000000, 0.744148
1366.000000, 0.732945
1367.000000, 0.735815
1368.000000, 0.745326
1369.000000, 0.779163
1370.000000, 0.831303
1371.000000, 0.872807
1372.000000, 0.885320
1373.000000, 0.897912
1374.000000, 0.923623
1375.000000, 0.937093
1376.000000, 0.894191
1377.000000, 0.789060
1378.000000, 0.684675
1379.000000, 0.651630
1380.000000, 0.717408
1381.000000, 0.844526
1382.000000, 0.944064
1383.000000, 0.961680
1384.000000, 0.914217
1385.000000, 0.889869
1386.000000, 0.945145
1387.000000, 1.022188
1388.000000, 1.027527
1389.000000, 0.966957
1390.000000, 0.895136
1391.000000, 0.851029
1392.000000, 0.836874
1393.000000, 0.906139
1394.000000, 1.040152
1395.000000, 1.071314
1396.000000, 0.964919
1397.000000, 0.844830
1398.000000, 0.914674
1399.000000, 1.082655
1400.000000, 1.144969
1401.000000, 1.079734
1402.000000, 0.996900
1403.000000, 1.001005
1404.000000, 1.010916
1405.000000, 0.995748
1406.000000, 1.004819
1407.000000, 1.085094
1408.000000, 1.177748
1409.000000, 1.182177
1410.000000, 1.107195
1411.000000, 1.038934
1412.000000, 1.068286
1413.000000, 1.118193
1414.000000, 1.134190
1415.000000, 1.103901
1416.000000, 1.106600
1417.000000, 1.138755
1418.000000, 1.170920
1419.000000, 1.165338
1420.000000, 1.148326
1421.000000, 1.168272
1422.000000, 1.220481
1423.000000, 1.266437
1424.000000, 1.249108
1425.000000, 1.215521
1426.000000, 1.198358
1427.000000, 1.205660
1428.000000, 1.213633
1429.000000, 1.228135
1430.000000, 1.254522
1431.000000, 1.277057
1432.000000, 1.285059
1433.000000, 1.288551
1434.000000, 1.301513
1435.000000, 1.324892
1436.000000, 1.354700
1437.000000, 1.370200
1438.000000, 1.352624
1439.000000, 1.329770
1440.000000, 1.317698
1441.000000, 1.329806
1442.000000, 1.350028
1443.000000, 1.394168
1444.000000, 1.435107
1445.000000, 1.446034
1446.000000, 1.402907
1447.000000, 1.379067
1448.000000, 1.393114
1449.000000, 1.436806
1450.000000, 1.461344
1451.000000, 1.466775
1452.000000, 1.474454
1453.000000, 1.495126
1454.000000, 1.525729
1455.000000, 1.547219
1456.000000, 1.531766
1457.000000, 1.511580
1458.000000, 1.510679
1459.000000, 1.540182
1460.000000, 1.558312
1461.000000, 1.547121
1462.000000, 1.539424
1463.000000, 1.546043
1464.000000, 1.577029
1465.000000, 1.588793
1466.000000, 1.561078
1467.000000, 1.532063
1468.000000, 1.527460
1469.000000, 1.601029
1470.000000, 1.673343
1471.000000, 1.730221
1472.000000, 1.727484
1473.000000, 1.677725
1474.000000, 1.636690
1475.000000, 1.611974
1476.000000, 1.628615
1477.000000, 1.643914
1478.000000, 1.705080
1479.000000, 1.770642
1480.000000, 1.831852
1481.000000, 1.826109
1482.000000, 1.789932
1483.000000, 1.754161
1484.000000, 1.739238
1485.000000, 1.753213
1486.000000, 1.759031
1487.000000, 1.763566
1488.000000, 1.766510
1489.000000, 1.777027
1490.000000, 1.787939
1491.000000, 1.797892
1492.000000, 1.815443
1493.000000, 1.832214
1494.000000, 1.861234
1495.000000, 1.886641
1496.000000, 1.916569
1497.000000, 1.923381
1498.000000, 1.895783
1499.000000, 1.862784
1500.000000, 1.848536
1501.000000, 1.865837
1502.000000, 1.896557
1503.000000, 1.925386
1504.000000, 1.969486
1505.000000, 1.985378
1506.000000, 1.966484
1507.000000, 1.939293
1508.000000, 1.936824
1509.000000, 1.963482
1510.000000, 1.993700
1511.000000, 2.019340
1512.000000, 2.039391
1513.000000, 2.013493
1514.000000, 1.990486
1515.000000, 1.981459
1516.000000, 2.010976
1517.000000, 2.050227
1518.000000, 2.084632
1519.000000, 2.100492
1520.000000, 2.075862
1521.000000, 2.051773
1522.000000, 2.047341
1523.000000, 2.068020
1524.000000, 2.089763
1525.000000, 2.113876
1526.000000, 2.146745
1527.000000, 2.161750
1528.000000, 2.133604
1529.000000, 2.108025
1530.000000, 2.095847
1531.000000, 2.111521
1532.000000, 2.123372
1533.000000, 2.139958
1534.000000, 2.170527
1535.000000, 2.197712
1536.000000, 2.224151
1537.000000, 2.230662
1538.000000, 2.203544
1539.000000, 2.173343
1540.000000, 2.159377
1541.000000, 2.179155
1542.000000, 2.193709
1543.000000, 2.214914
1544.000000, 2.238219
1545.000000, 2.271640
1546.000000, 2.291405
1547.000000, 2.286003
1548.000000, 2.252953
1549.000000, 2.222400
1550.000000, 2.211549
1551.000000, 2.229906
1552.000000, 2.262933
1553.000000, 2.297011
1554.000000, 2.335534
1555.000000, 2.337478
1556.000000, 2.304382
1557.000000, 2.260682
1558.000000, 2.253222
1559.000000, 2.282810
1560.000000, 2.320909
1561.000000, 2.354229
1562.000000, 2.389362
1563.000000, 2.399537
1564.000000, 2.368194
1565.000000, 2.333750
1566.000000, 2.329220
1567.000000, 2.368478
1568.000000, 2.408196
1569.000000, 2.407106
1570.000000, 2.360215
1571.000000, 2.321332
1572.000000, 2.312193
1573.000000, 2.351965
1574.000000, 2.389504
1575.000000, 2.422577
1576.000000, 2.423336
1577.000000, 2.386165
1578.000000, 2.354698
1579.000000, 2.338239
1580.000000, 2.355630
1581.000000, 2.381939
1582.000000, 2.418034
1583.000000, 2.453592
1584.000000, 2.467647
1585.000000, 2.460602
1586.000000, 2.425292
1587.000000, 2.395892
1588.000000, 2.380214
1589.000000, 2.387780
1590.000000, 2.394909
1591.000000, 2.405774
1592.000000, 2.415865
1593.000000, 2.426769
1594.000000, 2.433823
1595.000000, 2.438394
1596.000000, 2.449833
1597.000000, 2.464894
1598.000000, 2.476106
1599.000000, 2.480933
1600.000000, 2.488622
1601.000000, 2.506403
1602.000000, 2.529770
1603.000000, 2.550793
1604.000000, 2.570137
1605.000000, 2.583020
1606.000000, 2.574343
1607.000000, 2.524938
1608.000000, 2.474546
1609.000000, 2.447315
1610.000000, 2.454319
1611.000000, 2.467969
1612.000000, 2.482774
1613.000000, 2.494927
1614.000000, 2.498050
1615.000000, 2.494921
1616.000000, 2.494810
1617.000000, 2.499448
1618.000000, 2.510272
1619.000000, 2.527851
1620.000000, 2.555672
1621.000000, 2.581534
1622.000000, 2.578679
1623.000000, 2.538742
1624.000000, 2.500477
1625.000000, 2.485697
1626.000000, 2.500714
1627.000000, 2.519764
1628.000000, 2.549747
1629.000000, 2.573221
1630.000000, 2.562060
1631.000000, 2.518290
1632.000000, 2.485416
1633.000000, 2.487719
1634.000000, 2.516803
1635.000000, 2.549618
1636.000000, 2.574590
1637.000000, 2.568159
1638.000000, 2.533297
1639.000000, 2.501917
1640.000000, 2.503917
1641.000000, 2.534893
1642.000000, 2.566152
1643.000000, 2.568712
1644.000000, 2.535173
1645.000000, 2.495414
1646.000000, 2.484624
1647.000000, 2.505672
1648.000000, 2.532515
1649.000000, 2.563363
1650.000000, 2.588082
1651.000000, 2.577778
1652.000000, 2.536501
1653.000000, 2.501729
1654.000000, 2.498484
1655.000000, 2.519320
1656.000000, 2.541111
1657.000000, 2.569259
1658.000000, 2.599216
1659.000000, 2.623800
1660.000000, 2.647852
1661.000000, 2.668897
1662.000000, 2.661787
1663.000000, 2.621233
1664.000000, 2.577436
1665.000000, 2.573786
1666.000000, 2.621401
1667.000000, 2.686885
1668.000000, 2.705413
1669.000000, 2.647904
1670.000000, 2.557443
1671.000000, 2.495013
1672.000000, 2.483574
1673.000000, 2.494626
1674.000000, 2.517789
1675.000000, 2.544271
1676.000000, 2.575096
1677.000000, 2.594706
1678.000000, 2.576717
1679.000000, 2.531636
1680.000000, 2.483103
1681.000000, 2.473307
1682.000000, 2.488348
1683.000000, 2.507642
1684.000000, 2.525153
1685.000000, 2.549562
1686.000000, 2.587992
1687.000000, 2.617441
1688.000000, 2.595037
1689.000000, 2.541514
1690.000000, 2.496815
1691.000000, 2.496307
1692.000000, 2.518415
1693.000000, 2.538185
1694.000000, 2.552971
1695.000000, 2.565451
1696.000000, 2.582888
1697.000000, 2.590785
1698.000000, 2.565264
1699.000000, 2.517858
1700.000000, 2.472370
1701.000000, 2.465599
1702.000000, 2.479699
1703.000000, 2.497626
1704.000000, 2.499968
1705.000000, 2.499305
1706.000000, 2.505582
1707.000000, 2.522936
1708.000000, 2.542959
1709.000000, 2.558408
1710.000000, 2.580004
1711.000000, 2.608765
1712.000000, 2.631008
1713.000000, 2.607343
1714.000000, 2.553528
1715.000000, 2.499930
1716.000000, 2.486365
1717.000000, 2.490112
1718.000000, 2.495328
1719.000000, 2.506443
1720.000000, 2.521827
1721.000000, 2.538215
1722.000000, 2.541512
1723.000000, 2.544642
1724.000000, 2.558297
1725.000000, 2.583803
1726.000000, 2.613703
1727.000000, 2.631097
1728.000000, 2.599751
1729.000000, 2.550572
1730.000000, 2.507348
1731.000000, 2.498562
1732.000000, 2.497164
1733.000000, 2.495725
1734.000000, 2.496968
1735.000000, 2.496769
1736.000000, 2.501554
1737.000000, 2.515237
1738.000000, 2.531503
1739.000000, 2.550997
1740.000000, 2.566262
1741.000000, 2.585467
1742.000000, 2.601922
1743.000000, 2.627585
1744.000000, 2.640928
1745.000000, 2.606200
1746.000000, 2.558435
1747.000000, 2.515999
1748.000000, 2.508061
1749.000000, 2.504339
1750.000000, 2.509721
1751.000000, 2.518948
1752.000000, 2.525465
1753.000000, 2.533800
1754.000000, 2.547049
1755.000000, 2.563432
1756.000000, 2.569108
1757.000000, 2.587904
1758.000000, 2.605132
1759.000000, 2.631222
1760.000000, 2.641865
1761.000000, 2.609954
1762.000000, 2.562163
1763.000000, 2.512430
1764.000000, 2.506513
1765.000000, 2.509128
1766.000000, 2.512897
1767.000000, 2.513677
1768.000000, 2.517072
1769.000000, 2.517886
1770.000000, 2.507471
1771.000000, 2.496406
1772.000000, 2.493937
1773.000000, 2.495291
1774.000000, 2.489963
1775.000000, 2.484183
1776.000000, 2.513698
1777.000000, 2.558920
1778.000000, 2.600806
1779.000000, 2.633644
1780.000000, 2.670197
1781.000000, 2.692741
1782.000000, 2.681905
1783.000000, 2.656610
1784.000000, 2.662580
1785.000000, 2.677566
1786.000000, 2.683307
1787.000000, 2.656086
1788.000000, 2.627270
1789.000000, 2.623951
1790.000000, 2.633765
1791.000000, 2.658723
1792.000000, 2.677721
1793.000000, 2.703233
1794.000000, 2.745189
1795.000000, 2.770677
1796.000000, 2.734635
1797.000000, 2.651529
1798.000000, 2.598989
1799.000000, 2.629251
1800.000000, 2.686621
1801.000000, 2.697005
1802.000000, 2.655586
1803.000000, 2.634458
1804.000000, 2.667012
1805.000000, 2.737687
1806.000000, 2.767938
1807.000000, 2.727603
1808.000000, 2.663012
1809.000000, 2.642104
1810.000000, 2.631054
1811.000000, 2.659104
1812.000000, 2.690863
1813.000000, 2.813819
1814.000000, 2.913493
1815.000000, 2.851176
1816.000000, 2.597076
1817.000000, 2.332804
1818.000000, 2.298401
1819.000000, 2.604474
1820.000000, 3.005861
1821.000000, 3.216872
1822.000000, 3.077964
1823.000000, 2.791249
1824.000000, 2.583079
1825.000000, 2.508144
1826.000000, 2.519665
1827.000000, 2.606555
1828.000000, 2.792421
1829.000000, 3.021526
1830.000000, 3.090751
1831.000000, 2.964886
1832.000000, 2.701285
1833.000000, 2.555532
1834.000000, 2.540480
1835.000000, 2.550292
1836.000000, 2.456769
1837.000000, 2.352991
1838.000000, 2.454161
1839.000000, 2.932246
1840.000000, 3.533281
1841.000000, 3.751438
1842.000000, 3.333822
1843.000000, 2.559839
1844.000000, 2.053346
1845.000000, 2.163595
1846.000000, 2.753505
1847.000000, 3.295890
1848.000000, 3.415477
1849.000000, 3.100343
1850.000000, 2.737863
1851.000000, 2.592593
1852.000000, 2.754767
1853.000000, 2.957582
1854.000000, 3.003829
1855.000000, 2.840044
1856.000000, 2.638933
1857.000000, 2.600059
1858.000000, 2.776022
1859.000000, 3.103341
1860.000000, 3.405983
1861.000000, 3.515509
1862.000000, 3.390856
1863.000000, 3.133188
1864.000000, 2.844573
1865.000000, 2.639919
1866.000000, 2.494091
1867.000000, 2.393450
1868.000000, 2.393843
1869.000000, 2.444103
1870.000000, 2.533299
1871.000000, 2.672168
1872.000000, 2.820716
1873.000000, 2.977129
1874.000000, 3.106929
1875.000000, 3.276677
1876.000000, 3.425275
1877.000000, 3.401526
1878.000000, 3.187972
1879.000000, 2.953064
1880.000000, 2.848120
1881.000000, 2.921639
1882.000000, 3.062637
1883.000000, 3.161853
1884.000000, 3.195573
1885.000000, 3.153637
1886.000000, 3.008105
1887.000000, 2.850306
1888.000000, 2.760957
1889.000000, 2.836840
1890.000000, 3.070761
1891.000000, 3.346866
1892.000000, 3.504086
1893.000000, 3.407779
1894.000000, 3.105869
1895.000000, 2.808974
1896.000000, 2.680043
1897.000000, 2.814612
1898.000000, 3.067146
1899.000000, 3.230091
1900.000000, 3.178840
1901.000000, 2.978225
1902.000000, 2.783606
1903.000000, 2.773802
1904.000000, 3.043689
1905.000000, 3.429301
1906.000000, 3.667021
1907.000000, 3.540076
1908.000000, 3.208291
1909.000000, 2.903639
1910.000000, 2.843621
1911.000000, 2.971735
1912.000000, 3.246140
1913.000000, 3.458938
1914.000000, 3.503039
1915.000000, 3.288025
1916.000000, 2.955641
1917.000000, 2.732584
1918.000000, 2.733125
1919.000000, 2.946930
1920.000000, 3.187698
1921.000000, 3.325118
1922.000000, 3.302998
1923.000000, 3.203513
1924.000000, 3.113232
1925.000000, 3.084702
1926.000000, 3.139739
1927.000000, 3.229464
1928.000000, 3.302964
1929.000000, 3.319424
1930.000000, 3.289793
1931.000000, 3.273706
1932.000000, 3.267537
1933.000000, 3.259509
1934.000000, 3.261958
1935.000000, 3.247601
1936.000000, 3.238899
1937.000000, 3.258949
1938.000000, 3.333736
1939.000000, 3.434704
1940.000000, 3.454192
1941.000000, 3.397149
1942.000000, 3.344273
1943.000000, 3.316874
1944.000000, 3.351344
1945.000000, 3.390277
1946.000000, 3.429693
1947.000000, 3.422779
1948.000000, 3.406233
1949.000000, 3.402678
1950.000000, 3.392104
1951.000000, 3.376736
1952.000000, 3.399300
1953.000000, 3.451645
1954.000000, 3.458117
1955.000000, 3.420461
1956.000000, 3.433490
1957.000000, 3.506053
1958.000000, 3.549089
1959.000000, 3.513378
1960.000000, 3.467905
1961.000000, 3.482897
1962.000000, 3.515975
1963.000000, 3.550880
1964.000000, 3.535155
1965.000000, 3.549724
1966.000000, 3.572916
1967.000000, 3.600710
1968.000000, 3.588927
1969.000000, 3.553004
1970.000000, 3.563930
1971.000000, 3.646917
1972.000000, 3.712365
1973.000000, 3.735669
1974.000000, 3.697845
1975.000000, 3.687491
1976.000000, 3.691574
1977.000000, 3.694081
1978.000000, 3.692250
1979.000000, 3.679181
1980.000000, 3.674013
1981.000000, 3.670249
1982.000000, 3.676564
1983.000000, 3.684548
1984.000000, 3.692253
1985.000000, 3.710010
1986.000000, 3.739134
1987.000000, 3.778531
1988.000000, 3.817524
1989.000000, 3.851063
1990.000000, 3.838662
1991.000000, 3.789084
1992.000000, 3.740526
1993.000000, 3.741316
1994.000000, 3.782053
1995.000000, 3.837219
1996.000000, 3.890062
1997.000000, 3.896888
1998.000000, 3.856919
1999.000000, 3.766832
2000.065834, 3.742356
2009.942668, 3.841353
2020.098566, 3.959954
2029.969298, 4.088117
2039.837000, 3.968541
2049.983460, 4.076372
2059.844971, 4.172899
2069.985031, 4.444376
2079.840289, 4.568424
2089.973887, 4.579747
2099.822832, 4.695289
2109.949906, 4.778195
2119.792477, 5.062486
2129.912964, 5.209362
2140.030088, 5.342455
2149.862941, 5.452848
2159.973384, 5.529844
2169.799712, 5.724248
2179.903413, 5.778635
2190.003671, 5.790761
2199.820052, 5.850388
2209.913475, 5.967804
2219.723179, 6.092343
2229.809704, 6.162554
2239.892708, 6.266259
2249.692237, 6.535766
2259.768250, 6.677442
2269.840694, 6.932754
2279.909553, 7.073057
2289.695271, 7.247492
2299.757015, 7.387135
2309.815127, 7.555769
2319.869592, 7.835518
2329.641254, 7.913875
2339.688478, 8.081564
2349.732008, 8.022946
2359.771828, 8.124605
2369.807920, 8.273807
2379.840271, 8.519672
2389.590342, 8.666968
2399.615266, 8.722753
2409.636400, 8.758648
2419.653730, 8.993874
2429.667238, 9.076103
2439.676909, 9.245177
2449.682728, 9.329776
2459.684679, 9.608771
2469.682745, 9.766564
2479.676911, 9.823143
2489.667162, 9.852490
2499.653481, 9.941593
2509.635853, 9.974700
2519.614261, 9.954425
2529.588691, 10.113524
2539.559127, 10.258618
2549.525552, 10.534381
2559.487951, 10.574286
2569.722871, 10.601594
2579.677058, 10.770108
2589.627171, 10.828764
2599.573195, 11.069608
2609.515113, 11.040543
2619.452911, 11.146962
2629.662448, 11.264521
2639.591842, 11.457298
2649.517067, 11.630912
2659.438109, 11.505867
2669.630358, 11.428724
2679.542867, 11.350896
2689.451145, 11.248916
2699.630227, 10.578884
2709.529877, 9.384516
2719.425248, 7.638577
2729.591015, 5.612833
2739.477662, 3.545667
2749.359982, 2.074635
2759.512287, 1.388808
2769.385788, 0.972526
2779.528995, 0.649895
2789.393611, 0.307991
2799.527654, 0.319559
2809.383323, 0.374972
2819.508136, 0.456932
2829.354792, 0.351103
2839.470310, 0.388015
2849.307890, 0.301733
2859.414046, 0.374812
2869.515434, 0.420675
2879.339216, 0.388800
2889.431143, 0.512178
2899.245690, 0.461753
2909.328092, 0.529559
2919.405640, 0.432216
2929.206149, 0.429935
2939.274073, 0.458027
2949.337095, 0.476462
2959.395197, 0.540175
2969.176720, 0.713919
2979.225066, 0.941230
2989.268442, 1.025827
2999.306833, 0.883180
3009.340220, 0.725676
3019.368587, 0.799358
3029.391918, 1.016082
3039.139497, 1.143199
3049.152842, 1.136053
3059.161100, 1.043572
3069.164256, 0.944639
3079.162292, 0.983339
3089.155191, 1.072283
3099.142938, 1.254662
3109.125515, 1.226125
3119.102905, 1.358396
3129.075093, 1.397431
3139.311366, 1.550200
3149.272956, 1.556826
3159.229293, 1.737521
3169.180360, 1.938753
3179.126141, 1.928982
3189.066618, 1.946525
3199.270220, 1.993309
3209.199897, 2.150222
3219.124221, 2.189507
3229.043176, 2.166225
3239.224603, 2.390779
3249.132622, 2.636194
3259.035221, 2.765031
3269.199799, 2.629220
3279.091361, 2.697074
3288.977454, 2.665182
3299.125027, 2.844268
3308.999981, 2.701512
3319.136081, 2.680534
3328.999829, 2.495460
3339.124385, 2.353411
3348.976861, 2.308564
3359.089804, 2.206195
3368.930939, 2.154761
3379.032200, 1.976409
3389.127517, 1.863953
3398.951437, 1.714875
3409.034967, 1.498680
3419.112499, 1.145338
3428.919052, 0.945399
3438.984693, 0.708475
3449.044284, 0.583400
3458.833318, 0.404840
3468.880914, 0.400193
3478.922407, 0.501972
3488.957779, 0.455132
3498.987012, 0.446209
3509.010089, 0.243185
3519.026992, 0.455132
3529.037703, 0.450671
3538.779008, 0.381509
3548.777448, 0.346928
3558.769643, 0.314112
3568.755577, 0.283123
3578.997769, 0.257092
3588.970961, 0.235525
3598.937838, 0.217542
3608.898383, 0.202381
3618.852578, 0.189452
3628.800407, 0.178305
3638.741850, 0.168598
3648.938253, 0.160068
3658.866705, 0.152514
3668.788719, 0.145775
3678.704279, 0.139727
3688.874043, 0.134268
3698.776469, 0.129316
3708.672387, 0.124804
3718.821938, 0.120675
3728.704616, 0.116881
3738.840542, 0.113385
3748.709907, 0.110150
3758.832135, 0.107150
3768.688117, 0.104359
3778.796573, 0.101756
3788.639101, 0.099323
3798.733711, 0.097043
3808.821282, 0.094901
3818.643407, 0.092886
3828.717023, 0.090987
3838.783543, 0.089194
3848.585104, 0.087498
3858.637559, 0.085892
3868.682864, 0.084369
3878.720999, 0.082923
3888.751945, 0.081548
3898.518755, 0.080238
3908.535455, 0.078991
3918.544910, 0.077800
3928.547104, 0.076662
3938.542016, 0.075575
3948.529630, 0.074535
3958.509925, 0.073538
3968.482884, 0.072583
3978.703920, 0.071667
3988.661962, 0.070787
3998.612612, 0.069943
4008.555852, 0.069131
4018.491662, 0.068350
4028.674500, 0.067599
4038.595205, 0.066875
4048.508426, 0.066178
4058.414143, 0.065505
4068.566040, 0.064856
4078.456503, 0.064228
4088.592715, 0.063622
4098.467848, 0.063036
4108.588299, 0.062468
4118.448027, 0.061919
4128.552639, 0.061387
4138.396887, 0.060872
4148.485584, 0.060373
4158.566193, 0.059888
4168.386981, 0.059418
4178.451560, 0.058962
4188.507992, 0.058519
4198.305151, 0.058089
4208.345437, 0.057672
4218.377519, 0.057267
4228.401377, 0.056873
4238.416991, 0.056490
4248.424343, 0.056118
4258.423411, 0.055756
4268.414178, 0.055404
4278.396623, 0.055062
4288.370728, 0.054727
4298.336471, 0.054401
4308.293836, 0.054083
4318.242800, 0.053772
4328.431752, 0.053468
4338.363649, 0.053171
4348.287088, 0.052880
4358.202050, 0.052596
4368.356068, 0.052318
4378.253805, 0.052046
4388.390126, 0.051779
4398.270558, 0.051518
4408.389101, 0.051263
4418.252149, 0.051013
4428.352834, 0.050767
4438.198419, 0.050527
4448.281165, 0.050292
4458.354799, 0.050061
4468.173935, 0.049835
4478.229508, 0.049613
4488.275909, 0.049396
4498.313117, 0.049183
4508.096635, 0.048974
4518.115621, 0.048770
4528.125352, 0.048569
4538.125809, 0.048371
4548.116970, 0.048178
4558.098816, 0.047988
4568.071325, 0.047802
4578.277365, 0.047619
4588.230912, 0.047440
4598.175061, 0.047263
4608.109792, 0.047091
4618.035085, 0.046921
4628.192649, 0.046754
4638.098772, 0.046591
4647.995395, 0.046430
4658.123528, 0.046272
4668.000857, 0.046117
4678.109183, 0.045965
4687.967136, 0.045816
4698.055570, 0.045669
4708.133906, 0.045524
4717.962521, 0.045382
4728.020838, 0.045242
4738.068993, 0.045105
4748.106964, 0.044970
4758.134730, 0.044837
4767.913874, 0.044706
4777.921408, 0.044577
4787.918673, 0.044451
4797.905646, 0.044326
4807.882307, 0.044203
4818.085802, 0.044082
4828.041526, 0.043963
4837.986874, 0.043846
4847.921823, 0.043731
4857.846351, 0.043617
4867.996361, 0.043505
4877.899737, 0.043394
4888.028045, 0.043285
4897.910179, 0.043178
4908.016697, 0.043072
4917.877504, 0.042967
4927.962141, 0.042864
4937.801534, 0.042763
4947.864203, 0.042663
4957.915724, 0.042564
4967.956075, 0.042466
4977.985234, 0.042370
4987.770330, 0.042275
4997.777298, 0.042181
5007.776688, 0.042089
5017.595804, 0.041997
5028.169082, 0.041907
5037.986050, 0.041819
5047.801980, 0.041731
5057.616872, 0.041644
5068.185590, 0.041559
5077.998316, 0.041474
5087.809996, 0.041391
5097.620628, 0.041309
5107.430211, 0.041228
5117.993201, 0.041147
5127.800597, 0.041068
5137.606938, 0.040990
5147.412220, 0.040913
5157.970569, 0.040836
5167.773648, 0.040761
5177.575662, 0.040686
5187.376611, 0.040612
5197.930283, 0.040539
5207.729011, 0.040467
5217.526666, 0.040396
5227.323247, 0.040325
5237.872207, 0.040256
5247.666549, 0.040187
5257.459812, 0.040119
5268.005191, 0.040052
5277.796202, 0.039985
5287.586127, 0.039919
5297.374963, 0.039854
5307.915566, 0.039790
5317.702134, 0.039727
5327.487607, 0.039664
5337.271982, 0.039602
5347.807773, 0.039541
5357.589864, 0.039480
5367.370852, 0.039421
5377.902987, 0.039362
5387.681677, 0.039303
5397.459258, 0.039245
5407.235727, 0.039188
5417.762987, 0.039132
5427.537141, 0.039077
5437.310177, 0.039022
5447.833734, 0.038967
5457.604442, 0.038914
5467.374028, 0.038860
5477.142487, 0.038808
5487.661104, 0.038756
5497.427219, 0.038705
5507.192201, 0.038654
5517.707068, 0.038604
5527.469693, 0.038554
5537.231179, 0.038505
5547.742274, 0.038457
5557.501390, 0.038409
5567.259362, 0.038362
5577.766665, 0.038315
5587.522253, 0.038268
5597.276691, 0.038223
5607.780182, 0.038177
5617.532223, 0.038132
5627.283108, 0.038088
5637.032835, 0.038044
5647.531242, 0.038001
5657.278555, 0.037958
5667.024703, 0.037915
5677.519250, 0.037873
5687.262972, 0.037831
5697.005523, 0.037790
5707.496189, 0.037749
5717.236302, 0.037709
5726.975237, 0.037668
5737.462002, 0.037629
5747.198485, 0.037589
5757.682605, 0.037550
5767.416629, 0.037511
5777.149464, 0.037473
5787.629649, 0.037435
5797.360012, 0.037397
5807.089180, 0.037360
5817.565409, 0.037323
5827.292092, 0.037287
5837.017575, 0.037251
5847.489828, 0.037215
5857.212813, 0.037179
5866.934591, 0.037144
5877.402847, 0.037109
5887.122114, 0.037075
5897.587661, 0.037041
5907.304408, 0.037007
5917.019938, 0.036974
5927.481454, 0.036940
5937.194452, 0.036908
5946.906226, 0.036875
5957.363691, 0.036843
5967.072921, 0.036810
5977.527640, 0.036779
5987.234315, 0.036747
5996.939757, 0.036716
6007.390390, 0.036684
6017.093265, 0.036653
6026.794901, 0.036622
6037.241429, 0.036592
6046.940485, 0.036561
6057.384230, 0.036531
6067.080698, 0.036501
6076.775917, 0.036471
6087.215522, 0.036442
6096.908139, 0.036412
6107.344938, 0.036383
6117.034946, 0.036354
6126.723694, 0.036325
6137.156319, 0.036296
6146.842444, 0.036268
6157.272241, 0.036240
6166.955735, 0.036212
6177.382693, 0.036184
6187.063548, 0.036156
6196.743128, 0.036129
6207.165865, 0.036101
6216.842793, 0.036074
6227.262668, 0.036047
6236.936935, 0.036020
6246.609918, 0.035994
6257.025537, 0.035967
6266.695846, 0.035941
6277.108582, 0.035915
6286.776208, 0.035889
6297.186050, 0.035863
6306.850986, 0.035837
6317.257926, 0.035812
6326.920162, 0.035786
6336.581095, 0.035761
6346.983717, 0.035736
6356.641938, 0.035711
6367.041635, 0.035686
6376.697135, 0.035661
6387.093897, 0.035637
6396.746668, 0.035612
6407.140486, 0.035588
6416.790518, 0.035564
6427.181383, 0.035540
6436.828669, 0.035516
6446.474630, 0.035492
6456.861103, 0.035469
6466.504304, 0.035445
6476.887800, 0.035422
6486.528234, 0.035399
6496.908745, 0.035376
6506.546402, 0.035353
6516.923919, 0.035331
6526.558791, 0.035308
6536.933304, 0.035286
6546.565382, 0.035264
6556.936882, 0.035242
6566.566159, 0.035220
6576.934637, 0.035199
6586.561102, 0.035177
6596.926549, 0.035156
6606.550195, 0.035135
6616.912601, 0.035114
6626.533420, 0.035094
6636.892776, 0.035073
6646.510758, 0.035053
6656.867055, 0.035033
6666.482193, 0.035013
6676.835422, 0.034993
6686.447706, 0.034973
6696.797857, 0.034953
6706.407280, 0.034933
6716.754344, 0.034914
6726.360896, 0.034894
6736.704865, 0.034875
6746.308538, 0.034855
6756.649402, 0.034836
6766.250188, 0.034817
6776.587937, 0.034798
6786.924068, 0.034778
6796.520453, 0.034759
6806.853456, 0.034740
6816.446931, 0.034721
6826.776797, 0.034702
6836.367355, 0.034684
6846.694074, 0.034665
6856.281707, 0.034646
6866.605270, 0.034627
6876.189968, 0.034609
6886.510366, 0.034590
6896.829120, 0.034571
6906.409345, 0.034553
6916.724921, 0.034534
6926.302190, 0.034515
6936.614577, 0.034497
6946.188882, 0.034478
6956.498072, 0.034460
6966.805601, 0.034441
6976.375388, 0.034423
6986.679706, 0.034404
6996.246507, 0.034386
7006.547605, 0.034368
7016.111412, 0.034349
7026.409280, 0.034331
7036.705470, 0.034312
7046.264714, 0.034294
7056.557661, 0.034276
7066.113889, 0.034257
7076.403584, 0.034239
7086.691589, 0.034221
7096.243221, 0.034202
7106.527959, 0.034184
7116.076554, 0.034165
7126.358018, 0.034147
7136.637779, 0.034129
7146.181746, 0.034110
7156.458218, 0.034092
7165.999126, 0.034074
7176.272300, 0.034055
7186.543760, 0.034037
7196.080008, 0.034019
7206.348156, 0.034000
7216.614582, 0.033982
7226.146150, 0.033964
7236.409251, 0.033946
7245.937725, 0.033927
7256.197491, 0.033909
7266.455524, 0.033891
7275.979286, 0.033873
7286.233970, 0.033855
7296.486914, 0.033836
7306.005944, 0.033818
7316.255525, 0.033800
7326.503358, 0.033782
7336.017637, 0.033764
7346.262094, 0.033746
7356.504797, 0.033728
7366.014304, 0.033710
7376.253616, 0.033692
7386.491167, 0.033675
7395.995884, 0.033657
7406.230030, 0.033639
7416.462408, 0.033621
7425.962315, 0.033603
7436.191274, 0.033586
7446.418458, 0.033568
7455.913536, 0.033550
7466.137287, 0.033533
7476.359256, 0.033515
7485.849485, 0.033498
7496.068008, 0.033480
7506.284741, 0.033463
7515.770101, 0.033446
7525.983375, 0.033428
7536.194850, 0.033411
7545.675324, 0.033393
7555.883326, 0.033376
7566.089524, 0.033359
7576.293916, 0.033341
7585.767802, 0.033324
7595.968701, 0.033307
7606.167786, 0.033290
7615.636739, 0.033273
7625.832319, 0.033255
7636.026078, 0.033238
7646.218013, 0.033221
7655.680318, 0.033204
7665.868729, 0.033187
7676.055310, 0.033170
7686.240057, 0.033153
7695.695679, 0.033136
7705.876884, 0.033119
7716.056248, 0.033103
7726.233770, 0.033086
7735.682674, 0.033069
7745.856636, 0.033052
7756.028747, 0.033035
7766.199006, 0.033019
7775.641157, 0.033002
7785.807837, 0.032985
7795.972657, 0.032969
7806.135616, 0.032952
7815.570980, 0.032936
7825.730341, 0.032919
7835.887833, 0.032903
7846.043454, 0.032886
7855.471995, 0.032870
7865.624000, 0.032854
7875.774127, 0.032837
7885.922372, 0.032821
7896.068734, 0.032805
7905.488668, 0.032789
7915.631391, 0.032773
7925.772224, 0.032757
7935.911164, 0.032740
7946.048209, 0.032724
7955.459480, 0.032709
7965.592863, 0.032693
7975.724343, 0.032677
7985.853919, 0.032661
7995.981587, 0.032645
8005.384141, 0.032629
8015.508125, 0.032614
8025.630194, 0.032598
8035.750346, 0.032583
8045.868580, 0.032567
8055.984892, 0.032552
8065.376887, 0.032536
8075.489487, 0.032521
8085.600158, 0.032505
8095.708897, 0.032490
8105.815704, 0.032475
8115.920574, 0.032460
8125.301933, 0.032445
8135.403063, 0.032429
8145.502251, 0.032414
8155.599493, 0.032399
8165.694787, 0.032384
8175.788131, 0.032369
8185.879523, 0.032355
8195.248351, 0.032340
8205.335970, 0.032325
8215.421630, 0.032310
8225.505327, 0.032295
8235.587061, 0.032281
8245.666827, 0.032266
8255.744624, 0.032251
8265.820450, 0.032237
8275.174806, 0.032222
8285.246822, 0.032208
8295.316860, 0.032194
8305.384917, 0.032179
8315.450990, 0.032165
8325.515077, 0.032151
8335.577176, 0.032137
8345.637284, 0.032122
8355.695399, 0.032108
8365.751519, 0.032094
8375.087555, 0.032080
8385.139819, 0.032066
8395.190081, 0.032052
8405.238338, 0.032039
8415.284587, 0.032025
8425.328827, 0.032011
8435.371055, 0.031997
8445.411268, 0.031984
8455.449464, 0.031970
8465.485641, 0.031957
8475.519796, 0.031943
8485.551927, 0.031930
8495.582031, 0.031916
8505.610107, 0.031903
8515.636151, 0.031890
8525.660162, 0.031877
8535.682136, 0.031863
8544.986430, 0.031850
8555.004471, 0.031837
8565.020468, 0.031824
8575.034421, 0.031811
8585.046325, 0.031798
8595.056179, 0.031785
8605.063981, 0.031772
8615.069727, 0.031759
8625.073416, 0.031746
8635.075045, 0.031733
8645.074612, 0.031721
8655.072114, 0.031708
8665.067549, 0.031695
8675.060915, 0.031682
8685.052209, 0.031670
8695.041429, 0.031657
8705.028573, 0.031645
8715.013637, 0.031632
8724.996620, 0.031620
8734.977519, 0.031608
8744.956333, 0.031595
8754.933058, 0.031583
8764.907692, 0.031571
8774.880232, 0.031559
8784.850677, 0.031546
8794.819025, 0.031534
8804.785271, 0.031522
8815.461059, 0.031510
8825.422948, 0.031499
8835.382728, 0.031487
8845.340399, 0.031475
8855.295957, 0.031463
8865.249401, 0.031452
8875.200727, 0.031440
8885.149933, 0.031428
8895.097018, 0.031417
8905.041978, 0.031406
8914.984812, 0.031394
8924.925517, 0.031383
8934.864090, 0.031372
8944.800529, 0.031361
8954.734832, 0.031349
8965.376355, 0.031338
8975.306225, 0.031327
8985.233952, 0.031316
8995.159534, 0.031305
9005.082967, 0.031295
9015.004249, 0.031284
9024.923378, 0.031273
9034.840353, 0.031262
9044.755169, 0.031252
9054.667825, 0.031241
9065.286129, 0.031231
9075.194303, 0.031220
9085.100310, 0.031210
9095.004147, 0.031199
9104.905813, 0.031189
9114.805303, 0.031179
9124.702617, 0.031169
9134.597752, 0.031159
9145.197262, 0.031148
9155.087875, 0.031138
9164.976302, 0.031128
9174.862540, 0.031118
9184.746587, 0.031109
9194.628441, 0.031099
9204.508098, 0.031089
9215.091006, 0.031079
9224.966108, 0.031070
9234.839006, 0.031060
9244.709699, 0.031050
9254.578185, 0.031041
9265.149109, 0.031032
9275.013013, 0.031022
9284.874702, 0.031013
9294.734174, 0.031003
9304.591426, 0.030994
9314.446456, 0.030985
9325.002949, 0.030976
9334.853368, 0.030967
9344.701558, 0.030958
9354.547517, 0.030949
9364.391241, 0.030940
9374.935607, 0.030931
9384.774696, 0.030922
9394.611544, 0.030913
9404.446148, 0.030904
9414.980732, 0.030895
9424.810682, 0.030887
9434.638380, 0.030878
9444.463825, 0.030869
9454.988585, 0.030861
9464.809356, 0.030852
9474.627866, 0.030844
9484.444114, 0.030835
9494.959008, 0.030827
9504.770561, 0.030819
9514.579844, 0.030810
9524.386855, 0.030802
9534.891842, 0.030794
9544.694139, 0.030786
9554.494156, 0.030778
9564.291891, 0.030769
9574.786929, 0.030761
9584.579930, 0.030753
9594.370643, 0.030745
9604.858149, 0.030738
9614.644112, 0.030730
9624.427779, 0.030722
9634.209147, 0.030714
9644.686632, 0.030706
9654.463232, 0.030699
9664.237526, 0.030691
9674.707423, 0.030683
9684.476934, 0.030676
9694.244132, 0.030668
9704.706417, 0.030661
9714.468817, 0.030653
9724.228897, 0.030646
9734.683548, 0.030638
9744.438814, 0.030631
9754.191753, 0.030624
9764.638746, 0.030616
9774.386857, 0.030609
9784.132634, 0.030602
9794.571945, 0.030595
9804.312879, 0.030587
9814.746996, 0.030580
9824.483078, 0.030573
9834.216813, 0.030566
9844.643209, 0.030559
9854.372076, 0.030552
9864.098590, 0.030545
9874.517241, 0.030538
9884.238873, 0.030531
9894.652288, 0.030525
9904.369027, 0.030518
9914.083402, 0.030511
9924.489032, 0.030504
9934.198499, 0.030498
9944.598867, 0.030491
9954.303417, 0.030485
9964.005590, 0.030478
9974.398135, 0.030472
9984.095376, 0.030465
9994.482631, 0.030459
10004.174930, 0.030452
10014.556890, 0.030446
10024.244230, 0.030440
10033.929190, 0.030433
10044.303260, 0.030427
10053.983250, 0.030421
10064.352000, 0.030415
10074.027010, 0.030409
10084.390430, 0.030403
10094.060450, 0.030397
10104.418520, 0.030391
10114.083550, 0.030385
10124.436250, 0.030379
10134.096280, 0.030373
10144.443620, 0.030367
10154.098620, 0.030361
10164.440580, 0.030356
10174.090560, 0.030350
10184.427130, 0.030344
10194.072080, 0.030339
10204.403250, 0.030333
10214.043150, 0.030328
10224.368910, 0.030322
10234.003750, 0.030317
10244.324090, 0.030311
10253.953860, 0.030306
10264.268770, 0.030300
10273.893470, 0.030295
10284.202930, 0.030290
10293.822550, 0.030284
10304.126560, 0.030279
10313.741080, 0.030274
10324.039630, 0.030269
10334.335340, 0.030264
10343.942110, 0.030259
10354.232340, 0.030254
10363.834000, 0.030249
10374.118740, 0.030244
10383.715270, 0.030239
10393.994510, 0.030234
10404.270900, 0.030229
10413.859620, 0.030224
10424.130500, 0.030219
10433.714070, 0.030215
10443.979410, 0.030210
10454.241900, 0.030205
10463.817630, 0.030201
10474.074570, 0.030196
10483.645120, 0.030191
10493.896500, 0.030187
10504.145010, 0.030182
10513.707690, 0.030178
10523.950630, 0.030173
10534.190680, 0.030169
10543.745450, 0.030165
10553.979920, 0.030160
10564.211490, 0.030156
10573.758350, 0.030152
10583.984320, 0.030147
10593.525940, 0.030143
10603.746300, 0.030139
10613.963750, 0.030135
10624.178290, 0.030131
10633.709240, 0.030127
10643.918150, 0.030123
10654.124140, 0.030119
10663.647090, 0.030115
10673.847430, 0.030111
10684.044850, 0.030107
10693.559790, 0.030103
10703.751540, 0.030099
10713.940350, 0.030095
10723.447260, 0.030092
10733.630400, 0.030088
10743.810590, 0.030084
10753.987830, 0.030081
10763.483930, 0.030077
10773.655480, 0.030073
10783.824070, 0.030070
10793.989700, 0.030067
10803.474950, 0.030063
10813.634860, 0.030060
10823.791800, 0.030056
10833.945780, 0.030053
10843.420140, 0.030050
10853.568380, 0.030047
10863.713630, 0.030044
10873.855910, 0.030040
10883.319350, 0.030037
10893.455860, 0.030034
10903.589380, 0.030031
10913.719920, 0.030029
10923.847460, 0.030026
10933.297140, 0.030023
10943.418890, 0.030020
10953.537640, 0.030017
10963.653390, 0.030015
10973.766130, 0.030012
10983.875860, 0.030009
10993.308900, 0.030007
11003.412810, 0.030004
11013.513700, 0.030002
11023.611570, 0.030000
11033.706420, 0.029997
11043.798250, 0.029995
11053.214560, 0.029993
11063.300530, 0.029990
11073.383460, 0.029988
11083.463370, 0.029986
11093.540230, 0.029984
11103.614050, 0.029982
11113.684830, 0.029980
11123.752560, 0.029978
11133.146350, 0.029976
11143.208190, 0.029975
11153.266960, 0.029973
11163.322680, 0.029971
11173.375340, 0.029969
11183.424940, 0.029968
11193.471470, 0.029966
11203.514930, 0.029965
11213.555320, 0.029963
11223.592630, 0.029962
11233.626870, 0.029961
11243.658030, 0.029959
11253.686100, 0.029958
11263.711090, 0.029957
11273.064960, 0.029955
11283.083980, 0.029954
11293.099910, 0.029953
11303.112740, 0.029952
11313.122470, 0.029951
11323.129090, 0.029950
11333.132620, 0.029949
11343.133030, 0.029948
11353.130340, 0.029947
11363.124530, 0.029947
11373.115610, 0.029946
11383.103580, 0.029945
11393.088420, 0.029944
11403.070130, 0.029944
11413.048720, 0.029943
11423.024180, 0.029942
11432.996510, 0.029942
11442.965710, 0.029941
11452.931770, 0.029941
11463.558770, 0.029940
11473.518340, 0.029940
11483.474760, 0.029939
11493.428030, 0.029939
11503.378150, 0.029938
11513.325120, 0.029938
11523.268930, 0.029937
11533.209580, 0.029937
11543.147070, 0.029936
11553.081400, 0.029936
11563.012560, 0.029936
11572.940550, 0.029935
11582.865360, 0.029935
11593.448330, 0.029935
11603.366580, 0.029935
11613.281650, 0.029934
11623.193530, 0.029934
11633.102230, 0.029934
11643.007740, 0.029934
11652.910060, 0.029934
11662.809180, 0.029933
11673.364720, 0.029933
11683.257230, 0.029933
11693.146540, 0.029933
11703.032640, 0.029933
11712.915540, 0.029933
11722.795220, 0.029933
11733.330010, 0.029933
11743.203040, 0.029933
11753.072860, 0.029933
11762.939460, 0.029933
11772.802830, 0.029933
11783.320200, 0.029933
11793.176900, 0.029934
11803.030360, 0.029934
11812.880590, 0.029934
11822.727580, 0.029934
11833.227470, 0.029934
11843.067760, 0.029935
11852.904800, 0.029935
11862.738590, 0.029935
11873.224390, 0.029936
11883.051450, 0.029936
11892.875260, 0.029936
11902.695810, 0.029937
11913.167470, 0.029937
11922.981270, 0.029938
11932.791810, 0.029938
11942.599070, 0.029939
11953.056540, 0.029939
11962.857040, 0.029940
11972.654250, 0.029940
11983.100990, 0.029941
11992.891420, 0.029942
12002.678560, 0.029942
12013.114550, 0.029943
12022.894880, 0.029944
12032.671920, 0.029944
12043.097130, 0.029945
12052.867350, 0.029946
12062.634260, 0.029947
12073.048660, 0.029948
12082.808740, 0.029949
12092.565500, 0.029950
12102.969060, 0.029950
12112.718970, 0.029951
12122.465560, 0.029952
12132.858260, 0.029953
12142.597980, 0.029954
12152.983340, 0.029956
12162.716180, 0.029957
12172.445680, 0.029958
12182.820130, 0.029959
12192.542730, 0.029960
12202.909820, 0.029961
12212.625510, 0.029963
12222.985230, 0.029964
12232.693990, 0.029965
12242.399410, 0.029967
12252.748150, 0.029968
12262.446620, 0.029970
12272.787960, 0.029971
12282.479480, 0.029972
12292.813390, 0.029974
12302.497960, 0.029975
12312.824440, 0.029977
12322.502030, 0.029979
12332.821060, 0.029980
12342.491670, 0.029982
12352.803250, 0.029983
12362.466860, 0.029985
12372.770970, 0.029987
12382.427570, 0.029989
12392.724200, 0.029990
12402.373780, 0.029992
12412.662920, 0.029994
12422.305470, 0.029996
12432.587110, 0.029998
12442.222620, 0.030000
12452.496730, 0.030002
12462.766970, 0.030004
12472.391780, 0.030006
12482.654480, 0.030008
12492.272220, 0.030010
12502.527380, 0.030012
12512.778630, 0.030014
12522.385630, 0.030016
12532.629320, 0.030018
12542.229220, 0.030020
12552.465330, 0.030023
12562.697530, 0.030025
12572.286650, 0.030027
12582.511250, 0.030030
12592.731920, 0.030032
12602.310240, 0.030034
12612.523300, 0.030037
12622.094470, 0.030039
12632.299910, 0.030042
12642.501400, 0.030044
12652.698950, 0.030047
12662.255570, 0.030049
12672.445470, 0.030052
12682.631420, 0.030054
12692.177150, 0.030057
12702.355440, 0.030060
12712.529750, 0.030063
12722.064580, 0.030065
12732.231210, 0.030068
12742.393870, 0.030071
12752.552560, 0.030074
12762.072710, 0.030077
12772.223690, 0.030079
12782.370680, 0.030082
12792.513690, 0.030085
12802.019130, 0.030088
12812.154400, 0.030091
12822.285680, 0.030094
12832.412950, 0.030097
12842.536220, 0.030099
12852.023150, 0.030102
12862.138660, 0.030105
12872.250160, 0.030108
12882.357640, 0.030111
12892.461100, 0.030114
12901.929440, 0.030117
12912.025110, 0.030120
12922.116750, 0.030123
12932.204360, 0.030126
12942.287940, 0.030129
12952.367470, 0.030132
12962.442970, 0.030135
12971.885080, 0.030139
12981.952740, 0.030142
12992.016350, 0.030145
13002.075910, 0.030148
13012.131410, 0.030152
13022.182860, 0.030155
13032.230240, 0.030159
13042.273560, 0.030162
13052.312810, 0.030166
13062.347990, 0.030169
13072.379090, 0.030173
13081.779550, 0.030177
13091.802750, 0.030180
13101.821860, 0.030184
13111.836890, 0.030188
13121.847830, 0.030192
13131.854680, 0.030196
13141.857430, 0.030199
13151.856080, 0.030203
13161.850630, 0.030207
13171.841070, 0.030211
13181.827400, 0.030215
13191.809630, 0.030219
13201.787740, 0.030223
13211.761720, 0.030227
13221.731590, 0.030231
13231.697340, 0.030235
13241.658950, 0.030239
13252.238650, 0.030243
13262.191740, 0.030247
13272.140700, 0.030252
13282.085520, 0.030256
13292.026190, 0.030260
13301.962720, 0.030264
13311.895100, 0.030268
13321.823330, 0.030273
13331.747400, 0.030277
13341.667310, 0.030281
13351.583060, 0.030286
13362.113980, 0.030290
13372.021140, 0.030295
13381.924130, 0.030299
13391.822940, 0.030304
13401.717580, 0.030309
13411.608030, 0.030314
13422.112060, 0.030318
13431.993880, 0.030323
13441.871510, 0.030328
13451.744950, 0.030333
13461.614200, 0.030338
13472.095670, 0.030343
13481.956250, 0.030349
13491.812630, 0.030354
13501.664790, 0.030359
13511.512750, 0.030365
13521.971580, 0.030370
13531.810840, 0.030376
13541.645880, 0.030381
13551.476690, 0.030387
13561.917300, 0.030393
13571.739400, 0.030399
13581.557250, 0.030405
13591.984090, 0.030411
13601.793210, 0.030417
13611.598080, 0.030423
13621.398710, 0.030429
13631.807220, 0.030435
13641.599090, 0.030441
13651.386690, 0.030448
13661.781360, 0.030454
13671.560180, 0.030461
13681.945510, 0.030467
13691.715530, 0.030474
13701.481280, 0.030481
13711.852710, 0.030487
13721.609640, 0.030494
13731.362300, 0.030502
13741.719800, 0.030509
13751.463610, 0.030516
13761.811720, 0.030523
13771.546680, 0.030531
13781.885380, 0.030539
13791.611480, 0.030547
13801.333280, 0.030555
13811.657980, 0.030563
13821.370890, 0.030571
13831.686150, 0.030580
13841.390170, 0.030588
13851.695960, 0.030597
13861.391080, 0.030606
13871.687400, 0.030615
13881.373590, 0.030624
13891.660430, 0.030633
13901.337690, 0.030642
13911.615020, 0.030651
13921.283340, 0.030660
13931.551160, 0.030669
13941.210510, 0.030679
13951.468810, 0.030688
13961.722190, 0.030698
13971.367950, 0.030707
13981.611790, 0.030717
13991.248550, 0.030727
14001.482830, 0.030737
14011.712170, 0.030747
14021.335290, 0.030757
14031.555050, 0.030767
14041.169140, 0.030778
14051.379310, 0.030789
14061.584530, 0.030800
14071.184930, 0.030811
14081.380530, 0.030823
14091.571180, 0.030834
14101.157850, 0.030847
14111.338860, 0.030859
14121.514910, 0.030872
14131.087820, 0.030885
14141.254210, 0.030898
14151.415610, 0.030912
14161.572040, 0.030926
14171.126470, 0.030941
14181.273210, 0.030955
14191.414960, 0.030971
14201.551710, 0.030986
14211.087620, 0.031001
14221.214660, 0.031017
14231.336690, 0.031034
14241.453710, 0.031051
14250.971030, 0.031068
14261.078310, 0.031086
14271.180570, 0.031104
14281.277810, 0.031121
14291.370010, 0.031139
14301.457180, 0.031157
14310.946390, 0.031174
14321.023790, 0.031192
14331.096140, 0.031210
14341.163440, 0.031228
14351.225700, 0.031247
14361.282900, 0.031265
14371.335040, 0.031284
14381.382130, 0.031303
14391.424150, 0.031322
14400.870830, 0.031341
14410.903010, 0.031361
14420.930110, 0.031380
14430.952140, 0.031400
14440.969080, 0.031420
14450.980940, 0.031440
14460.987710, 0.031460
14470.989390, 0.031480
14480.985970, 0.031501
14490.977450, 0.031522
14500.963830, 0.031543
14510.945100, 0.031564
14520.921270, 0.031585
14530.892320, 0.031606
14540.858250, 0.031628
14550.819060, 0.031649
14560.774750, 0.031671
14571.310480, 0.031692
14581.255610, 0.031714
14591.195610, 0.031736
14601.130460, 0.031757
14611.060180, 0.031779
14620.984750, 0.031801
14630.904170, 0.031822
14640.818440, 0.031844
14650.727550, 0.031865
14661.213930, 0.031887
14671.112420, 0.031908
14681.005740, 0.031930
14690.893890, 0.031951
14700.776870, 0.031973
14710.654670, 0.031994
14721.107870, 0.032015
14730.975000, 0.032037
14740.836950, 0.032058
14750.693700, 0.032079
14761.124610, 0.032100
14770.970660, 0.032122
14780.811520, 0.032143
14790.647170, 0.032164
14801.055710, 0.032186
14810.880640, 0.032208
14820.700340, 0.032229
14831.091990, 0.032251
14840.900950, 0.032273
14850.704690, 0.032295
14861.079410, 0.032318
14870.872370, 0.032340
14880.660100, 0.032362
14891.017860, 0.032385
14900.794800, 0.032408
14910.566490, 0.032430
14920.907260, 0.032453
14930.668130, 0.032476
14940.997440, 0.032499
14950.747490, 0.032522
14960.492270, 0.032545
14970.804530, 0.032569
14980.538460, 0.032592
14990.839220, 0.032616
15000.562290, 0.032639
15010.851540, 0.032663
15020.563730, 0.032687
15030.841460, 0.032711
15040.542750, 0.032735
15050.808940, 0.032759
15060.499320, 0.032783
15070.753950, 0.032807
15080.433420, 0.032832
15090.676470, 0.032856
15100.913570, 0.032880
15110.576470, 0.032904
15120.801970, 0.032928
15130.453910, 0.032953
15140.667800, 0.032977
15150.875710, 0.033001
15160.511030, 0.033025
15170.707310, 0.033049
15180.331630, 0.033074
15190.516260, 0.033098
15200.694890, 0.033122
15210.302530, 0.033146
15220.469500, 0.033170
15230.630450, 0.033194
15240.785390, 0.033218
15250.370640, 0.033243
15260.513880, 0.033267
15270.651090, 0.033291
15280.782270, 0.033315
15290.345070, 0.033339
15300.464520, 0.033364
15310.577930, 0.033388
15320.685300, 0.033412
15330.225590, 0.033436
15340.321190, 0.033461
15350.410730, 0.033485
15360.494220, 0.033509
15370.571640, 0.033533
15380.642990, 0.033557
15390.708270, 0.033582
15400.208790, 0.033606
15410.262250, 0.033630
15420.309630, 0.033654
15430.350920, 0.033678
15440.386120, 0.033702
15450.415220, 0.033726
15460.438230, 0.033750
15470.455130, 0.033774
15480.465920, 0.033798
15490.470600, 0.033822
15500.469170, 0.033846
15510.461610, 0.033870
15520.447940, 0.033894
15530.428130, 0.033918
15540.402200, 0.033942
15550.370130, 0.033966
15560.331920, 0.033990
15570.287570, 0.034014
15580.237070, 0.034038
15590.180420, 0.034062
15600.117610, 0.034086
15610.048650, 0.034110
15620.524720, 0.034134
15630.443090, 0.034158
15640.355280, 0.034182
15650.261300, 0.034206
15660.161140, 0.034231
15670.054800, 0.034255
15680.491400, 0.034279
15690.372340, 0.034303
15700.247080, 0.034327
15710.115630, 0.034351
15719.977970, 0.034375
15730.381490, 0.034399
15740.231070, 0.034423
15750.074440, 0.034447
15759.911590, 0.034471
15770.288500, 0.034495
15780.112860, 0.034519
15789.930980, 0.034543
15800.287800, 0.034567
15810.093110, 0.034591
15819.892180, 0.034615
15830.228860, 0.034639
15840.015090, 0.034663
15850.338210, 0.034687
15860.111580, 0.034711
15869.878690, 0.034735
15880.181610, 0.034759
15889.935840, 0.034783
15900.225160, 0.034807
15909.966480, 0.034831
15920.242180, 0.034855
15929.970590, 0.034879
15940.232640, 0.034902
15949.948120, 0.034926
15960.196520, 0.034950
15969.899050, 0.034974
15980.133770, 0.034998
15989.823340, 0.035021
16000.044360, 0.035045
