# Wavelength  (nm), Transmission (%)
200.000000, 0.000321
201.000000, 0.000398
202.000000, 0.000259
203.000000, 0.000137
204.000000, 0.000174
205.000000, 0.000256
206.000000, 0.000349
207.000000, 0.000297
208.000000, 0.000462
209.000000, 0.000368
210.000000, 0.000404
211.000000, 0.000151
212.000000, 0.000228
213.000000, 0.000222
214.000000, 0.000244
215.000000, 0.000143
216.000000, 0.000179
217.000000, 0.000153
218.000000, 0.000378
219.000000, 0.000228
220.000000, 0.000175
221.000000, 0.000110
222.000000, 0.000130
223.000000, 0.000229
224.000000, 0.000319
225.000000, 0.000236
226.000000, 0.000239
227.000000, 0.000179
228.000000, 0.000221
229.000000, 0.000360
230.000000, 0.000389
231.000000, 0.000160
232.000000, 0.000162
233.000000, 0.000225
234.000000, 0.000228
235.000000, 0.000410
236.000000, 0.000779
237.000000, 0.000450
238.000000, 0.000316
239.000000, 0.000266
240.000000, 0.000389
241.000000, 0.000616
242.000000, 0.000562
243.000000, 0.000450
244.000000, 0.000405
245.000000, 0.000526
246.000000, 0.000480
247.000000, 0.000624
248.000000, 0.000394
249.000000, 0.000641
250.000000, 0.000649
251.000000, 0.000562
252.000000, 0.000410
253.000000, 0.000711
254.000000, 0.000790
255.000000, 0.000749
256.000000, 0.000533
257.000000, 0.000400
258.000000, 0.000390
259.000000, 0.000998
260.000000, 0.000842
261.000000, 0.000748
262.000000, 0.000506
263.000000, 0.000506
264.000000, 0.000421
265.000000, 0.000946
266.000000, 0.000934
267.000000, 0.000569
268.000000, 0.000474
269.000000, 0.000385
270.000000, 0.000346
271.000000, 0.000778
272.000000, 0.000666
273.000000, 0.000519
274.000000, 0.000444
275.000000, 0.000427
276.000000, 0.000342
277.000000, 0.000768
278.000000, 0.000623
279.000000, 0.000450
280.000000, 0.000356
281.000000, 0.000312
282.000000, 0.000278
283.000000, 0.000710
284.000000, 0.000512
285.000000, 0.000241
286.000000, 0.000334
287.000000, 0.000289
288.000000, 0.000254
289.000000, 0.000607
290.000000, 0.000656
291.000000, 0.000235
292.000000, 0.000321
293.000000, 0.000258
294.000000, 0.000305
295.000000, 0.000286
296.000000, 0.000301
297.000000, 0.000207
298.000000, 0.000166
299.000000, 0.000175
300.000000, 0.000236
301.000000, 0.000614
302.000000, 0.000294
303.000000, 0.000164
304.000000, 0.000268
305.000000, 0.000221
306.000000, 0.000401
307.000000, 0.000306
308.000000, 0.000512
309.000000, 0.000178
310.000000, 0.000230
311.000000, 0.000269
312.000000, 0.000326
313.000000, 0.000391
314.000000, 0.000499
315.000000, 0.000198
316.000000, 0.000253
317.000000, 0.000371
318.000000, 0.000348
319.000000, 0.000486
320.000000, 0.000560
321.000000, 0.000310
322.000000, 0.000376
323.000000, 0.000376
324.000000, 0.000322
325.000000, 0.000468
326.000000, 0.000553
327.000000, 0.000276
328.000000, 0.000302
329.000000, 0.000439
330.000000, 0.000335
331.000000, 0.000427
332.000000, 0.000546
333.000000, 0.000298
334.000000, 0.000287
335.000000, 0.000518
336.000000, 0.000381
337.000000, 0.000474
338.000000, 0.000762
339.000000, 0.000295
340.000000, 0.000362
341.000000, 0.000462
342.000000, 0.000411
343.000000, 0.000597
344.000000, 0.000751
345.000000, 0.000327
346.000000, 0.000315
347.000000, 0.000450
348.000000, 0.000450
349.000000, 0.000386
350.000000, 0.000831
351.000000, 0.000358
352.000000, 0.000468
353.000000, 0.000462
354.000000, 0.000462
355.000000, 0.000401
356.000000, 0.000740
357.000000, 0.000336
358.000000, 0.000417
359.000000, 0.000525
360.000000, 0.000444
361.000000, 0.000588
362.000000, 0.000954
363.000000, 0.000323
364.000000, 0.000407
365.000000, 0.000545
366.000000, 0.000417
367.000000, 0.000511
368.000000, 0.000798
369.000000, 0.000382
370.000000, 0.000486
371.000000, 0.000552
372.000000, 0.000372
373.000000, 0.000573
374.000000, 0.000720
375.000000, 0.000320
376.000000, 0.000462
377.000000, 0.000602
378.000000, 0.000439
379.000000, 0.000363
380.000000, 0.000486
381.000000, 0.000505
382.000000, 0.000354
383.000000, 0.000524
384.000000, 0.000625
385.000000, 0.000402
386.000000, 0.000492
387.000000, 0.000602
388.000000, 0.000456
389.000000, 0.000439
390.000000, 0.000727
391.000000, 0.000397
392.000000, 0.000572
393.000000, 0.000533
394.000000, 0.000439
395.000000, 0.000480
396.000000, 0.000682
397.000000, 0.000392
398.000000, 0.000530
399.000000, 0.000551
400.000000, 0.000428
401.000000, 0.000594
402.000000, 0.000579
403.000000, 0.000302
404.000000, 0.000492
405.000000, 0.000530
406.000000, 0.000434
407.000000, 0.000423
408.000000, 0.000593
409.000000, 0.000408
410.000000, 0.000523
411.000000, 0.000571
412.000000, 0.000322
413.000000, 0.000537
414.000000, 0.000586
415.000000, 0.000378
416.000000, 0.000550
417.000000, 0.000492
418.000000, 0.000330
419.000000, 0.000510
420.000000, 0.000517
421.000000, 0.000408
422.000000, 0.000608
423.000000, 0.000530
424.000000, 0.000360
425.000000, 0.000571
426.000000, 0.000714
427.000000, 0.000413
428.000000, 0.000705
429.000000, 0.000585
430.000000, 0.000398
431.000000, 0.000585
432.000000, 0.000600
433.000000, 0.000403
434.000000, 0.000638
435.000000, 0.000543
436.000000, 0.000339
437.000000, 0.000479
438.000000, 0.000498
439.000000, 0.000361
440.000000, 0.000536
441.000000, 0.000529
442.000000, 0.000445
443.000000, 0.000549
444.000000, 0.000549
445.000000, 0.000408
446.000000, 0.000570
447.000000, 0.000516
448.000000, 0.000408
449.000000, 0.000510
450.000000, 0.000485
451.000000, 0.000375
452.000000, 0.000629
453.000000, 0.000529
454.000000, 0.000403
455.000000, 0.000591
456.000000, 0.000498
457.000000, 0.000357
458.000000, 0.000577
459.000000, 0.000536
460.000000, 0.000419
461.000000, 0.000451
462.000000, 0.000408
463.000000, 0.000389
464.000000, 0.000497
465.000000, 0.000419
466.000000, 0.000352
467.000000, 0.000485
468.000000, 0.000510
469.000000, 0.000375
470.000000, 0.000474
471.000000, 0.000424
472.000000, 0.000344
473.000000, 0.000419
474.000000, 0.000424
475.000000, 0.000328
476.000000, 0.000435
477.000000, 0.000451
478.000000, 0.000344
479.000000, 0.000384
480.000000, 0.000389
481.000000, 0.000320
482.000000, 0.000414
483.000000, 0.000435
484.000000, 0.000371
485.000000, 0.000414
486.000000, 0.000366
487.000000, 0.000328
488.000000, 0.000429
489.000000, 0.000404
490.000000, 0.000336
491.000000, 0.000414
492.000000, 0.000389
493.000000, 0.000324
494.000000, 0.000371
495.000000, 0.000399
496.000000, 0.000340
497.000000, 0.000389
498.000000, 0.000389
499.000000, 0.000332
500.000000, 0.000414
501.000000, 0.000362
502.000000, 0.000297
503.000000, 0.000404
504.000000, 0.000409
505.000000, 0.000328
506.000000, 0.000394
507.000000, 0.000371
508.000000, 0.000309
509.000000, 0.000414
510.000000, 0.000385
511.000000, 0.000328
512.000000, 0.000445
513.000000, 0.000362
514.000000, 0.000414
515.000000, 0.000529
516.000000, 0.000366
517.000000, 0.000394
518.000000, 0.000522
519.000000, 0.000345
520.000000, 0.000375
521.000000, 0.000509
522.000000, 0.000380
523.000000, 0.000435
524.000000, 0.000576
525.000000, 0.000371
526.000000, 0.000424
527.000000, 0.000555
528.000000, 0.000394
529.000000, 0.000462
530.000000, 0.000612
531.000000, 0.000362
532.000000, 0.000376
533.000000, 0.000528
534.000000, 0.000404
535.000000, 0.000473
536.000000, 0.000642
537.000000, 0.000394
538.000000, 0.000446
539.000000, 0.000568
540.000000, 0.000399
541.000000, 0.000503
542.000000, 0.000626
543.000000, 0.000358
544.000000, 0.000446
545.000000, 0.000568
546.000000, 0.000362
547.000000, 0.000451
548.000000, 0.000555
549.000000, 0.000404
550.000000, 0.000485
551.000000, 0.000582
552.000000, 0.000385
553.000000, 0.000509
554.000000, 0.000674
555.000000, 0.000354
556.000000, 0.000414
557.000000, 0.000596
558.000000, 0.000435
559.000000, 0.000541
560.000000, 0.000626
561.000000, 0.000424
562.000000, 0.000457
563.000000, 0.000399
564.000000, 0.000491
565.000000, 0.000611
566.000000, 0.000409
567.000000, 0.000561
568.000000, 0.000611
569.000000, 0.000419
570.000000, 0.000541
571.000000, 0.000575
572.000000, 0.000399
573.000000, 0.000582
574.000000, 0.000611
575.000000, 0.000371
576.000000, 0.000509
577.000000, 0.000626
578.000000, 0.000394
579.000000, 0.000535
580.000000, 0.000658
581.000000, 0.000468
582.000000, 0.000568
583.000000, 0.000554
584.000000, 0.000349
585.000000, 0.000568
586.000000, 0.000716
587.000000, 0.000395
588.000000, 0.000568
589.000000, 0.000619
590.000000, 0.000395
591.000000, 0.000491
592.000000, 0.000611
593.000000, 0.000371
594.000000, 0.000649
595.000000, 0.000682
596.000000, 0.000424
597.000000, 0.000619
598.000000, 0.000634
599.000000, 0.000419
600.000000, 0.000626
601.000000, 0.000673
602.000000, 0.000385
603.000000, 0.000575
604.000000, 0.000548
605.000000, 0.000457
606.000000, 0.000673
607.000000, 0.000707
608.000000, 0.000385
609.000000, 0.000485
610.000000, 0.000582
611.000000, 0.000462
612.000000, 0.000462
613.000000, 0.000419
614.000000, 0.000404
615.000000, 0.000528
616.000000, 0.000419
617.000000, 0.000299
618.000000, 0.000430
619.000000, 0.000457
620.000000, 0.000363
621.000000, 0.000399
622.000000, 0.000515
623.000000, 0.000317
624.000000, 0.000363
625.000000, 0.000400
626.000000, 0.000313
627.000000, 0.000281
628.000000, 0.000371
629.000000, 0.000306
630.000000, 0.000358
631.000000, 0.000346
632.000000, 0.000261
633.000000, 0.000333
634.000000, 0.000302
635.000000, 0.000223
636.000000, 0.000337
637.000000, 0.000462
638.000000, 0.000709
639.000000, 0.000453
640.000000, 0.000635
641.000000, 0.000731
642.000000, 0.000536
643.000000, 0.000438
644.000000, 0.000701
645.000000, 0.000457
646.000000, 0.000653
647.000000, 0.000665
648.000000, 0.000463
649.000000, 0.000433
650.000000, 0.000668
651.000000, 0.000462
652.000000, 0.000607
653.000000, 0.000680
654.000000, 0.000452
655.000000, 0.000452
656.000000, 0.000649
657.000000, 0.000500
658.000000, 0.000585
659.000000, 0.000721
660.000000, 0.000587
661.000000, 0.000454
662.000000, 0.000699
663.000000, 0.000661
664.000000, 0.000671
665.000000, 0.000708
666.000000, 0.000652
667.000000, 0.000476
668.000000, 0.000673
669.000000, 0.000440
670.000000, 0.000635
671.000000, 0.000796
672.000000, 0.000513
673.000000, 0.000379
674.000000, 0.000643
675.000000, 0.000485
676.000000, 0.000619
677.000000, 0.000654
678.000000, 0.000512
679.000000, 0.000502
680.000000, 0.000716
681.000000, 0.000450
682.000000, 0.000574
683.000000, 0.000702
684.000000, 0.000596
685.000000, 0.000390
686.000000, 0.000740
687.000000, 0.000455
688.000000, 0.000518
689.000000, 0.000662
690.000000, 0.000447
691.000000, 0.000503
692.000000, 0.000651
693.000000, 0.000538
694.000000, 0.000593
695.000000, 0.000732
696.000000, 0.000497
697.000000, 0.000589
698.000000, 0.000741
699.000000, 0.000395
700.000000, 0.000547
701.000000, 0.000765
702.000000, 0.000615
703.000000, 0.000561
704.000000, 0.000711
705.000000, 0.000547
706.000000, 0.000628
707.000000, 0.000676
708.000000, 0.000588
709.000000, 0.000532
710.000000, 0.000788
711.000000, 0.000543
712.000000, 0.000664
713.000000, 0.000704
714.000000, 0.000520
715.000000, 0.000451
716.000000, 0.000772
717.000000, 0.000596
718.000000, 0.000531
719.000000, 0.000683
720.000000, 0.000631
721.000000, 0.000511
722.000000, 0.000653
723.000000, 0.000522
724.000000, 0.000697
725.000000, 0.000605
726.000000, 0.000690
727.000000, 0.000421
728.000000, 0.000765
729.000000, 0.000462
730.000000, 0.000751
731.000000, 0.000589
732.000000, 0.000749
733.000000, 0.000447
734.000000, 0.000869
735.000000, 0.000453
736.000000, 0.000619
737.000000, 0.000561
738.000000, 0.000856
739.000000, 0.000506
740.000000, 0.000882
741.000000, 0.000463
742.000000, 0.000662
743.000000, 0.000596
744.000000, 0.000727
745.000000, 0.000520
746.000000, 0.000688
747.000000, 0.000524
748.000000, 0.000587
749.000000, 0.000612
750.000000, 0.000818
751.000000, 0.000504
752.000000, 0.000789
753.000000, 0.000518
754.000000, 0.000632
755.000000, 0.000676
756.000000, 0.000685
757.000000, 0.000474
758.000000, 0.000791
759.000000, 0.000506
760.000000, 0.000571
761.000000, 0.000675
762.000000, 0.000727
763.000000, 0.000537
764.000000, 0.000667
765.000000, 0.000528
766.000000, 0.000535
767.000000, 0.000726
768.000000, 0.000728
769.000000, 0.000545
770.000000, 0.000656
771.000000, 0.000529
772.000000, 0.000522
773.000000, 0.000671
774.000000, 0.000714
775.000000, 0.000668
776.000000, 0.000807
777.000000, 0.000625
778.000000, 0.000504
779.000000, 0.000780
780.000000, 0.000685
781.000000, 0.000592
782.000000, 0.000707
783.000000, 0.000564
784.000000, 0.000490
785.000000, 0.000733
786.000000, 0.000630
787.000000, 0.000563
788.000000, 0.000683
789.000000, 0.000620
790.000000, 0.000549
791.000000, 0.000748
792.000000, 0.000681
793.000000, 0.000644
794.000000, 0.000724
795.000000, 0.000652
796.000000, 0.000534
797.000000, 0.000827
798.000000, 0.000702
799.000000, 0.000568
800.000000, 0.000838
801.000000, 0.000667
802.000000, 0.000575
803.000000, 0.000758
804.000000, 0.000656
805.000000, 0.000573
806.000000, 0.000687
807.000000, 0.000596
808.000000, 0.000577
809.000000, 0.000702
810.000000, 0.000668
811.000000, 0.000559
812.000000, 0.000769
813.000000, 0.000836
814.000000, 0.000619
815.000000, 0.000744
816.000000, 0.000656
817.000000, 0.000609
818.000000, 0.000826
819.000000, 0.000867
820.000000, 0.000655
821.000000, 0.000782
822.000000, 0.000695
823.000000, 0.000582
824.000000, 0.000812
825.000000, 0.000770
826.000000, 0.000677
827.000000, 0.000732
828.000000, 0.000753
829.000000, 0.000657
830.000000, 0.000796
831.000000, 0.000816
832.000000, 0.000704
833.000000, 0.000692
834.000000, 0.000677
835.000000, 0.000696
836.000000, 0.000674
837.000000, 0.000739
838.000000, 0.000696
839.000000, 0.000677
840.000000, 0.000692
841.000000, 0.000699
842.000000, 0.000641
843.000000, 0.000669
844.000000, 0.000653
845.000000, 0.000705
846.000000, 0.000744
847.000000, 0.000712
848.000000, 0.000687
849.000000, 0.000695
850.000000, 0.000657
851.000000, 0.000698
852.000000, 0.000719
853.000000, 0.000605
854.000000, 0.000640
855.000000, 0.000684
856.000000, 0.000680
857.000000, 0.000691
858.000000, 0.000755
859.000000, 0.000623
860.000000, 0.000665
861.000000, 0.000691
862.000000, 0.000653
863.000000, 0.000715
864.000000, 0.000684
865.000000, 0.000596
866.000000, 0.000587
867.000000, 0.000632
868.000000, 0.000657
869.000000, 0.000649
870.000000, 0.000677
871.000000, 0.000645
872.000000, 0.000577
873.000000, 0.000650
874.000000, 0.000654
875.000000, 0.000658
876.000000, 0.000637
877.000000, 0.000583
878.000000, 0.000713
879.000000, 0.000762
880.000000, 0.000607
881.000000, 0.000654
882.000000, 0.000682
883.000000, 0.000642
884.000000, 0.000532
885.000000, 0.000607
886.000000, 0.000674
887.000000, 0.000659
888.000000, 0.000655
889.000000, 0.000655
890.000000, 0.000686
891.000000, 0.000711
892.000000, 0.000559
893.000000, 0.000704
894.000000, 0.000704
895.000000, 0.000613
896.000000, 0.000584
897.000000, 0.000664
898.000000, 0.000594
899.000000, 0.000590
900.000000, 0.000668
901.000000, 0.000613
902.000000, 0.000549
903.000000, 0.000648
904.000000, 0.000609
905.000000, 0.000517
906.000000, 0.000632
907.000000, 0.000605
908.000000, 0.000488
909.000000, 0.000619
910.000000, 0.000614
911.000000, 0.000591
912.000000, 0.000665
913.000000, 0.000561
914.000000, 0.000696
915.000000, 0.000726
916.000000, 0.000605
917.000000, 0.000637
918.000000, 0.000650
919.000000, 0.000606
920.000000, 0.000620
921.000000, 0.000658
922.000000, 0.000633
923.000000, 0.000572
924.000000, 0.000674
925.000000, 0.000557
926.000000, 0.000611
927.000000, 0.000708
928.000000, 0.000634
929.000000, 0.000513
930.000000, 0.000663
931.000000, 0.000597
932.000000, 0.000530
933.000000, 0.000602
934.000000, 0.000583
935.000000, 0.000536
936.000000, 0.000655
937.000000, 0.000531
938.000000, 0.000573
939.000000, 0.000676
940.000000, 0.000635
941.000000, 0.000508
942.000000, 0.000608
943.000000, 0.000603
944.000000, 0.000526
945.000000, 0.000589
946.000000, 0.000543
947.000000, 0.000478
948.000000, 0.000627
949.000000, 0.000479
950.000000, 0.000644
951.000000, 0.000640
952.000000, 0.000575
953.000000, 0.000604
954.000000, 0.000636
955.000000, 0.000509
956.000000, 0.000521
957.000000, 0.000665
958.000000, 0.000575
959.000000, 0.000510
960.000000, 0.000661
961.000000, 0.000527
962.000000, 0.000516
963.000000, 0.000605
964.000000, 0.000570
965.000000, 0.000549
966.000000, 0.000549
967.000000, 0.000595
968.000000, 0.000571
969.000000, 0.000615
970.000000, 0.000528
971.000000, 0.000516
972.000000, 0.000571
973.000000, 0.000510
974.000000, 0.000555
975.000000, 0.000655
976.000000, 0.000522
977.000000, 0.000528
978.000000, 0.000534
979.000000, 0.000576
980.000000, 0.000481
981.000000, 0.000663
982.000000, 0.000493
983.000000, 0.000587
984.000000, 0.000642
985.000000, 0.000393
986.000000, 0.000505
987.000000, 0.000456
988.000000, 0.000602
989.000000, 0.000616
990.000000, 0.000664
991.000000, 0.000487
992.000000, 0.000422
993.000000, 0.000494
994.000000, 0.000422
995.000000, 0.000356
996.000000, 0.000597
997.000000, 0.000475
998.000000, 0.000506
999.000000, 0.000593
1000.000000, 0.000415
1001.000000, 0.000469
1002.000000, 0.000557
1003.000000, 0.000450
1004.000000, 0.000416
1005.000000, 0.000583
1006.000000, 0.000387
1007.000000, 0.000456
1008.000000, 0.000541
1009.000000, 0.000470
1010.000000, 0.000476
1011.000000, 0.000563
1012.000000, 0.000443
1013.000000, 0.000443
1014.000000, 0.000657
1015.000000, 0.000349
1016.000000, 0.000416
1017.000000, 0.000547
1018.000000, 0.000238
1019.000000, 0.000450
1020.000000, 0.000584
1021.000000, 0.000395
1022.000000, 0.000402
1023.000000, 0.000489
1024.000000, 0.000309
1025.000000, 0.000300
1026.000000, 0.000470
1027.000000, 0.000380
1028.000000, 0.000417
1029.000000, 0.000508
1030.000000, 0.000380
1031.000000, 0.000373
1032.000000, 0.000513
1033.000000, 0.000275
1034.000000, 0.000458
1035.000000, 0.000502
1036.000000, 0.000300
1037.000000, 0.000553
1038.000000, 0.000782
1039.000000, 0.004600
1040.000000, 0.019310
1041.000000, 0.090550
1042.000000, 0.198410
1043.000000, 0.400160
1044.000000, 0.741660
1045.000000, 1.743550
1046.000000, 2.908020
1047.000000, 8.039030
1048.000000, 23.834650
1049.000000, 50.502860
1050.000000, 72.275590
1051.000000, 84.635060
1052.000000, 88.878130
1053.000000, 90.712860
1054.000000, 91.333890
1055.000000, 91.736470
1056.000000, 92.746430
1057.000000, 94.078930
1058.000000, 95.032730
1059.000000, 95.391440
1060.000000, 95.343990
1061.000000, 95.284240
1062.000000, 95.443290
1063.000000, 95.791360
1064.000000, 96.072460
1065.000000, 96.273270
1066.000000, 96.220020
1067.000000, 96.094580
1068.000000, 95.931790
1069.000000, 95.856120
1070.000000, 95.913470
1071.000000, 96.145460
1072.000000, 96.415750
1073.000000, 96.674930
1074.000000, 96.803460
1075.000000, 96.918490
1076.000000, 96.887620
1077.000000, 96.857830
1078.000000, 96.817640
1079.000000, 96.801030
1080.000000, 96.844510
1081.000000, 96.938340
1082.000000, 97.030490
1083.000000, 97.135400
1084.000000, 97.205230
1085.000000, 97.210530
1086.000000, 97.140890
1087.000000, 97.076800
1088.000000, 96.932870
1089.000000, 96.873650
1090.000000, 96.817040
1091.000000, 96.785120
1092.000000, 96.824130
1093.000000, 96.912090
1094.000000, 97.037850
1095.000000, 97.160370
1096.000000, 97.258150
1097.000000, 97.372110
1098.000000, 97.465290
1099.000000, 97.508790
1100.000000, 97.514370
1101.000000, 97.438810
1102.000000, 97.345430
1103.000000, 97.261870
1104.000000, 97.196900
1105.000000, 97.131720
1106.000000, 97.097490
1107.000000, 97.127970
1108.000000, 97.156010
1109.000000, 97.190630
1110.000000, 97.252020
1111.000000, 97.360760
1112.000000, 97.465720
1113.000000, 97.548380
1114.000000, 97.618130
1115.000000, 97.670410
1116.000000, 97.690650
1117.000000, 97.691790
1118.000000, 97.691250
1119.000000, 97.699860
1120.000000, 97.644110
1121.000000, 97.634200
1122.000000, 97.634400
1123.000000, 97.626370
1124.000000, 97.613820
1125.000000, 97.655460
1126.000000, 97.704590
1127.000000, 97.695440
1128.000000, 97.746180
1129.000000, 97.788300
1130.000000, 97.816740
1131.000000, 97.844160
1132.000000, 97.861940
1133.000000, 97.882700
1134.000000, 97.867700
1135.000000, 97.901870
1136.000000, 97.879830
1137.000000, 97.855020
1138.000000, 97.818610
1139.000000, 97.815050
1140.000000, 97.840660
1141.000000, 97.817300
1142.000000, 97.828470
1143.000000, 97.855030
1144.000000, 97.859940
1145.000000, 97.888380
1146.000000, 97.897820
1147.000000, 97.912290
1148.000000, 97.940800
1149.000000, 97.975340
1150.000000, 97.948010
1151.000000, 97.981690
1152.000000, 97.958930
1153.000000, 97.947350
1154.000000, 97.933150
1155.000000, 97.938560
1156.000000, 97.943560
1157.000000, 97.928660
1158.000000, 97.906170
1159.000000, 97.913020
1160.000000, 97.920280
1161.000000, 97.864740
1162.000000, 97.882200
1163.000000, 97.893360
1164.000000, 97.885470
1165.000000, 97.884360
1166.000000, 97.905840
1167.000000, 97.936740
1168.000000, 97.974440
1169.000000, 97.995540
1170.000000, 98.032540
1171.000000, 98.044410
1172.000000, 98.059180
1173.000000, 98.071510
1174.000000, 98.082260
1175.000000, 98.060830
1176.000000, 98.067690
1177.000000, 98.063780
1178.000000, 98.058540
1179.000000, 98.055040
1180.000000, 98.041640
1181.000000, 98.036300
1182.000000, 98.029020
1183.000000, 98.030210
1184.000000, 98.020430
1185.000000, 98.016400
1186.000000, 98.039390
1187.000000, 98.035650
1188.000000, 98.034640
1189.000000, 98.065530
1190.000000, 98.063240
1191.000000, 98.075510
1192.000000, 98.096150
1193.000000, 98.150790
1194.000000, 98.186660
1195.000000, 98.168590
1196.000000, 98.161960
1197.000000, 98.204360
1198.000000, 98.207530
1199.000000, 98.196220
1200.000000, 98.185000
1201.000000, 98.168580
1202.000000, 98.159530
1203.000000, 98.140590
1204.000000, 98.128060
1205.000000, 98.127240
1206.000000, 98.117440
1207.000000, 98.099780
1208.000000, 98.082280
1209.000000, 98.090070
1210.000000, 98.073560
1211.000000, 98.071270
1212.000000, 98.103430
1213.000000, 98.096820
1214.000000, 98.101000
1215.000000, 98.132050
1216.000000, 98.134930
1217.000000, 98.151690
1218.000000, 98.170300
1219.000000, 98.194860
1220.000000, 98.193840
1221.000000, 98.215960
1222.000000, 98.237090
1223.000000, 98.224950
1224.000000, 98.239460
1225.000000, 98.247490
1226.000000, 98.246520
1227.000000, 98.264750
1228.000000, 98.273250
1229.000000, 98.273140
1230.000000, 98.256170
1231.000000, 98.260250
1232.000000, 98.298200
1233.000000, 98.300270
1234.000000, 98.275850
1235.000000, 98.275100
1236.000000, 98.269940
1237.000000, 98.274380
1238.000000, 98.294420
1239.000000, 98.286170
1240.000000, 98.279760
1241.000000, 98.277890
1242.000000, 98.280610
1243.000000, 98.281930
1244.000000, 98.285870
1245.000000, 98.306820
1246.000000, 98.311800
1247.000000, 98.317140
1248.000000, 98.322600
1249.000000, 98.343290
1250.000000, 98.358560
1251.000000, 98.364630
1252.000000, 98.363810
1253.000000, 98.365860
1254.000000, 98.371800
1255.000000, 98.389670
1256.000000, 98.405250
1257.000000, 98.403440
1258.000000, 98.382470
1259.000000, 98.394200
1260.000000, 98.431480
1261.000000, 98.444810
1262.000000, 98.466790
1263.000000, 98.482270
1264.000000, 98.478970
1265.000000, 98.478290
1266.000000, 98.498770
1267.000000, 98.493970
1268.000000, 98.469860
1269.000000, 98.466400
1270.000000, 98.462510
1271.000000, 98.443960
1272.000000, 98.445840
1273.000000, 98.459460
1274.000000, 98.453020
1275.000000, 98.450130
1276.000000, 98.446540
1277.000000, 98.438990
1278.000000, 98.444680
1279.000000, 98.461790
1280.000000, 98.457360
1281.000000, 98.434300
1282.000000, 98.415850
1283.000000, 98.434570
1284.000000, 98.455040
1285.000000, 98.449780
1286.000000, 98.462920
1287.000000, 98.469560
1288.000000, 98.484700
1289.000000, 98.480550
1290.000000, 98.485140
1291.000000, 98.507360
1292.000000, 98.505800
1293.000000, 98.524770
1294.000000, 98.533630
1295.000000, 98.512350
1296.000000, 98.510900
1297.000000, 98.522720
1298.000000, 98.547950
1299.000000, 98.548960
1300.000000, 98.522420
1301.000000, 98.514800
1302.000000, 98.512900
1303.000000, 98.523290
1304.000000, 98.535980
1305.000000, 98.521910
1306.000000, 98.532730
1307.000000, 98.536420
1308.000000, 98.518140
1309.000000, 98.515060
1310.000000, 98.515170
1311.000000, 98.506450
1312.000000, 98.493570
1313.000000, 98.485000
1314.000000, 98.481780
1315.000000, 98.476070
1316.000000, 98.467680
1317.000000, 98.473720
1318.000000, 98.458670
1319.000000, 98.452080
1320.000000, 98.446060
1321.000000, 98.458260
1322.000000, 98.451180
1323.000000, 98.451940
1324.000000, 98.438690
1325.000000, 98.466830
1326.000000, 98.481510
1327.000000, 98.514930
1328.000000, 98.503130
1329.000000, 98.515230
1330.000000, 98.488290
1331.000000, 98.503810
1332.000000, 98.517170
1333.000000, 98.535040
1334.000000, 98.546890
1335.000000, 98.542410
1336.000000, 98.573310
1337.000000, 98.544280
1338.000000, 98.573800
1339.000000, 98.565300
1340.000000, 98.530800
1341.000000, 98.541100
1342.000000, 98.565320
1343.000000, 98.581410
1344.000000, 98.552770
1345.000000, 98.576190
1346.000000, 98.580780
1347.000000, 98.557780
1348.000000, 98.520490
1349.000000, 98.571530
1350.000000, 98.577170
1351.000000, 98.603540
1352.000000, 98.504860
1353.000000, 98.477120
1354.000000, 98.537510
1355.000000, 98.525220
1356.000000, 98.565620
1357.000000, 98.490640
1358.000000, 98.524170
1359.000000, 98.548280
1360.000000, 98.588290
1361.000000, 98.562590
1362.000000, 98.555510
1363.000000, 98.567630
1364.000000, 98.586210
1365.000000, 98.583280
1366.000000, 98.594750
1367.000000, 98.615560
1368.000000, 98.619820
1369.000000, 98.627100
1370.000000, 98.635010
1371.000000, 98.590410
1372.000000, 98.634440
1373.000000, 98.635970
1374.000000, 98.602080
1375.000000, 98.597090
1376.000000, 98.614450
1377.000000, 98.670660
1378.000000, 98.509870
1379.000000, 98.574340
1380.000000, 98.603440
1381.000000, 98.584230
1382.000000, 98.578420
1383.000000, 98.601040
1384.000000, 98.602600
1385.000000, 98.561880
1386.000000, 98.568210
1387.000000, 98.558490
1388.000000, 98.575630
1389.000000, 98.555730
1390.000000, 98.566800
1391.000000, 98.554580
1392.000000, 98.567660
1393.000000, 98.560470
1394.000000, 98.546890
1395.000000, 98.550140
1396.000000, 98.520100
1397.000000, 98.540130
1398.000000, 98.520410
1399.000000, 98.543190
1400.000000, 98.497290
1401.000000, 98.511160
1402.000000, 98.538940
1403.000000, 98.515130
1404.000000, 98.528770
1405.000000, 98.544790
1406.000000, 98.566910
1407.000000, 98.597990
1408.000000, 98.602760
1409.000000, 98.583840
1410.000000, 98.581750
1411.000000, 98.562870
1412.000000, 98.604020
1413.000000, 98.646560
1414.000000, 98.592390
1415.000000, 98.610070
1416.000000, 98.635350
1417.000000, 98.678230
1418.000000, 98.679040
1419.000000, 98.662850
1420.000000, 98.640740
1421.000000, 98.669710
1422.000000, 98.672380
1423.000000, 98.651580
1424.000000, 98.668750
1425.000000, 98.678840
1426.000000, 98.698030
1427.000000, 98.652380
1428.000000, 98.649980
1429.000000, 98.639940
1430.000000, 98.633880
1431.000000, 98.611270
1432.000000, 98.620280
1433.000000, 98.632540
1434.000000, 98.622660
1435.000000, 98.608180
1436.000000, 98.596010
1437.000000, 98.575860
1438.000000, 98.556440
1439.000000, 98.529160
1440.000000, 98.538240
1441.000000, 98.573660
1442.000000, 98.548760
1443.000000, 98.553200
1444.000000, 98.531640
1445.000000, 98.530580
1446.000000, 98.551760
1447.000000, 98.534260
1448.000000, 98.601170
1449.000000, 98.552450
1450.000000, 98.546020
1451.000000, 98.557360
1452.000000, 98.569190
1453.000000, 98.576800
1454.000000, 98.567510
1455.000000, 98.600360
1456.000000, 98.600850
1457.000000, 98.549450
1458.000000, 98.628560
1459.000000, 98.609990
1460.000000, 98.645430
1461.000000, 98.628850
1462.000000, 98.643680
1463.000000, 98.650730
1464.000000, 98.659590
1465.000000, 98.656750
1466.000000, 98.661330
1467.000000, 98.691660
1468.000000, 98.690360
1469.000000, 98.707180
1470.000000, 98.729270
1471.000000, 98.690940
1472.000000, 98.687150
1473.000000, 98.694430
1474.000000, 98.704830
1475.000000, 98.682470
1476.000000, 98.671480
1477.000000, 98.675490
1478.000000, 98.683320
1479.000000, 98.678850
1480.000000, 98.630320
1481.000000, 98.648060
1482.000000, 98.619290
1483.000000, 98.634970
1484.000000, 98.621840
1485.000000, 98.606310
1486.000000, 98.599690
1487.000000, 98.593710
1488.000000, 98.579640
1489.000000, 98.559710
1490.000000, 98.580340
1491.000000, 98.571600
1492.000000, 98.553760
1493.000000, 98.504600
1494.000000, 98.513610
1495.000000, 98.541290
1496.000000, 98.535100
1497.000000, 98.480990
1498.000000, 98.482710
1499.000000, 98.526090
1500.000000, 98.500270
1501.000000, 98.534690
1502.000000, 98.538990
1503.000000, 98.536170
1504.000000, 98.522150
1505.000000, 98.540180
1506.000000, 98.569340
1507.000000, 98.574830
1508.000000, 98.553780
1509.000000, 98.588700
1510.000000, 98.611040
1511.000000, 98.634120
1512.000000, 98.634620
1513.000000, 98.657850
1514.000000, 98.654910
1515.000000, 98.669580
1516.000000, 98.678290
1517.000000, 98.687370
1518.000000, 98.710750
1519.000000, 98.690510
1520.000000, 98.649790
1521.000000, 98.690630
1522.000000, 98.694930
1523.000000, 98.695630
1524.000000, 98.707210
1525.000000, 98.744370
1526.000000, 98.713260
1527.000000, 98.688970
1528.000000, 98.693270
1529.000000, 98.675610
1530.000000, 98.672880
1531.000000, 98.651210
1532.000000, 98.631760
1533.000000, 98.617490
1534.000000, 98.582320
1535.000000, 98.596470
1536.000000, 98.597550
1537.000000, 98.588460
1538.000000, 98.561670
1539.000000, 98.518110
1540.000000, 98.523830
1541.000000, 98.523460
1542.000000, 98.512240
1543.000000, 98.501940
1544.000000, 98.506930
1545.000000, 98.483140
1546.000000, 98.476970
1547.000000, 98.464130
1548.000000, 98.455900
1549.000000, 98.448450
1550.000000, 98.448170
1551.000000, 98.444890
1552.000000, 98.426730
1553.000000, 98.413800
1554.000000, 98.414920
1555.000000, 98.420970
1556.000000, 98.432180
1557.000000, 98.478030
1558.000000, 98.468980
1559.000000, 98.476700
1560.000000, 98.480360
1561.000000, 98.488500
1562.000000, 98.488710
1563.000000, 98.506220
1564.000000, 98.551560
1565.000000, 98.560640
1566.000000, 98.563520
1567.000000, 98.572750
1568.000000, 98.574630
1569.000000, 98.593830
1570.000000, 98.603930
1571.000000, 98.627650
1572.000000, 98.628280
1573.000000, 98.645760
1574.000000, 98.643530
1575.000000, 98.638960
1576.000000, 98.666560
1577.000000, 98.687340
1578.000000, 98.676150
1579.000000, 98.655670
1580.000000, 98.690390
1581.000000, 98.704760
1582.000000, 98.699940
1583.000000, 98.733100
1584.000000, 98.723650
1585.000000, 98.711400
1586.000000, 98.712900
1587.000000, 98.703910
1588.000000, 98.673160
1589.000000, 98.664550
1590.000000, 98.672490
1591.000000, 98.660070
1592.000000, 98.645190
1593.000000, 98.643340
1594.000000, 98.646320
1595.000000, 98.633450
1596.000000, 98.632180
1597.000000, 98.616070
1598.000000, 98.605740
1599.000000, 98.604470
1600.000000, 98.594670
1601.000000, 98.583610
1602.000000, 98.582070
1603.000000, 98.584460
1604.000000, 98.586820
1605.000000, 98.571710
1606.000000, 98.554830
1607.000000, 98.565470
1608.000000, 98.570660
1609.000000, 98.561170
1610.000000, 98.545260
1611.000000, 98.552450
1612.000000, 98.562740
1613.000000, 98.536280
1614.000000, 98.533700
1615.000000, 98.544310
1616.000000, 98.561590
1617.000000, 98.579160
1618.000000, 98.581960
1619.000000, 98.559000
1620.000000, 98.575640
1621.000000, 98.599900
1622.000000, 98.593170
1623.000000, 98.602230
1624.000000, 98.616410
1625.000000, 98.625290
1626.000000, 98.636570
1627.000000, 98.643860
1628.000000, 98.659450
1629.000000, 98.679230
1630.000000, 98.684970
1631.000000, 98.685770
1632.000000, 98.709270
1633.000000, 98.727610
1634.000000, 98.710470
1635.000000, 98.698060
1636.000000, 98.705880
1637.000000, 98.724200
1638.000000, 98.734580
1639.000000, 98.736260
1640.000000, 98.732270
1641.000000, 98.720770
1642.000000, 98.743410
1643.000000, 98.766810
1644.000000, 98.757740
1645.000000, 98.747280
1646.000000, 98.743430
1647.000000, 98.745100
1648.000000, 98.747690
1649.000000, 98.754860
1650.000000, 98.735570
1651.000000, 98.727190
1652.000000, 98.733890
1653.000000, 98.725750
1654.000000, 98.715400
1655.000000, 98.705750
1656.000000, 98.702960
1657.000000, 98.698590
1658.000000, 98.686240
1659.000000, 98.672700
1660.000000, 98.652960
1661.000000, 98.627110
1662.000000, 98.625840
1663.000000, 98.609830
1664.000000, 98.602100
1665.000000, 98.589800
1666.000000, 98.581990
1667.000000, 98.584310
1668.000000, 98.565290
1669.000000, 98.548810
1670.000000, 98.565210
1671.000000, 98.579160
1672.000000, 98.582960
1673.000000, 98.588590
1674.000000, 98.574990
1675.000000, 98.581220
1676.000000, 98.588710
1677.000000, 98.567700
1678.000000, 98.552700
1679.000000, 98.551670
1680.000000, 98.573980
1681.000000, 98.595570
1682.000000, 98.587870
1683.000000, 98.614550
1684.000000, 98.639900
1685.000000, 98.637050
1686.000000, 98.626210
1687.000000, 98.628840
1688.000000, 98.624830
1689.000000, 98.640830
1690.000000, 98.652060
1691.000000, 98.661890
1692.000000, 98.678520
1693.000000, 98.700200
1694.000000, 98.721390
1695.000000, 98.743500
1696.000000, 98.749110
1697.000000, 98.761530
1698.000000, 98.750430
1699.000000, 98.735200
1700.000000, 98.763830
1701.000000, 98.808320
1702.000000, 98.817340
1703.000000, 98.820750
1704.000000, 98.837560
1705.000000, 98.848680
1706.000000, 98.843130
1707.000000, 98.840220
1708.000000, 98.856990
1709.000000, 98.865770
1710.000000, 98.851430
1711.000000, 98.817750
1712.000000, 98.867690
1713.000000, 98.876100
1714.000000, 98.870670
1715.000000, 98.849790
1716.000000, 98.868220
1717.000000, 98.880960
1718.000000, 98.889090
1719.000000, 98.887410
1720.000000, 98.872300
1721.000000, 98.864490
1722.000000, 98.841830
1723.000000, 98.818930
1724.000000, 98.828650
1725.000000, 98.837470
1726.000000, 98.828190
1727.000000, 98.806380
1728.000000, 98.797500
1729.000000, 98.805200
1730.000000, 98.793120
1731.000000, 98.769810
1732.000000, 98.762200
1733.000000, 98.740320
1734.000000, 98.765530
1735.000000, 98.785210
1736.000000, 98.781170
1737.000000, 98.753380
1738.000000, 98.763440
1739.000000, 98.749080
1740.000000, 98.746590
1741.000000, 98.769190
1742.000000, 98.741780
1743.000000, 98.749480
1744.000000, 98.743400
1745.000000, 98.749780
1746.000000, 98.748530
1747.000000, 98.723040
1748.000000, 98.719980
1749.000000, 98.728840
1750.000000, 98.736770
1751.000000, 98.731980
1752.000000, 98.747690
1753.000000, 98.735500
1754.000000, 98.742020
1755.000000, 98.778420
1756.000000, 98.794800
1757.000000, 98.767680
1758.000000, 98.749740
1759.000000, 98.770680
1760.000000, 98.784000
1761.000000, 98.807600
1762.000000, 98.810050
1763.000000, 98.805930
1764.000000, 98.839600
1765.000000, 98.854140
1766.000000, 98.865340
1767.000000, 98.878550
1768.000000, 98.909240
1769.000000, 98.905630
1770.000000, 98.907600
1771.000000, 98.918660
1772.000000, 98.911690
1773.000000, 98.933020
1774.000000, 98.953640
1775.000000, 98.985560
1776.000000, 98.978410
1777.000000, 98.981360
1778.000000, 98.986160
1779.000000, 99.000110
1780.000000, 99.019300
1781.000000, 99.005060
1782.000000, 98.987350
1783.000000, 99.026070
1784.000000, 99.001240
1785.000000, 99.015030
1786.000000, 99.007930
1787.000000, 99.009240
1788.000000, 98.995030
1789.000000, 99.011170
1790.000000, 98.971270
1791.000000, 98.983910
1792.000000, 98.985290
1793.000000, 98.984670
1794.000000, 98.958250
1795.000000, 98.944330
1796.000000, 98.957700
1797.000000, 98.951090
1798.000000, 98.957750
1799.000000, 98.955950
1800.000000, 98.968500
1801.000000, 98.929890
1802.000000, 98.931440
1803.000000, 98.907410
1804.000000, 98.917660
1805.000000, 98.892400
1806.000000, 98.936860
1807.000000, 98.908550
1808.000000, 98.912560
1809.000000, 98.888780
1810.000000, 98.897400
1811.000000, 98.877730
1812.000000, 98.853610
1813.000000, 98.839450
1814.000000, 98.830640
1815.000000, 98.849950
1816.000000, 98.826240
1817.000000, 98.821600
1818.000000, 98.784640
1819.000000, 98.812540
1820.000000, 98.849930
1821.000000, 98.870030
1822.000000, 98.834020
1823.000000, 98.744330
1824.000000, 98.795880
1825.000000, 98.819500
1826.000000, 98.828550
1827.000000, 98.855340
1828.000000, 98.815750
1829.000000, 98.840310
1830.000000, 98.857690
1831.000000, 98.855950
1832.000000, 98.835960
1833.000000, 98.885030
1834.000000, 98.903470
1835.000000, 98.882740
1836.000000, 98.894060
1837.000000, 98.907450
1838.000000, 98.888330
1839.000000, 98.886180
1840.000000, 99.021510
1841.000000, 98.957230
1842.000000, 98.939680
1843.000000, 98.965470
1844.000000, 98.974450
1845.000000, 98.962350
1846.000000, 98.981070
1847.000000, 98.989290
1848.000000, 99.027230
1849.000000, 99.057050
1850.000000, 99.035020
1851.000000, 99.017460
1852.000000, 99.031120
1853.000000, 99.067620
1854.000000, 99.065340
1855.000000, 99.074920
1856.000000, 99.059160
1857.000000, 99.095900
1858.000000, 99.109860
1859.000000, 99.096440
1860.000000, 99.098740
1861.000000, 99.130770
1862.000000, 99.172590
1863.000000, 99.088390
1864.000000, 99.100300
1865.000000, 99.090320
1866.000000, 99.085600
1867.000000, 99.103430
1868.000000, 99.099410
1869.000000, 99.093430
1870.000000, 99.120310
1871.000000, 99.086680
1872.000000, 99.067160
1873.000000, 99.099590
1874.000000, 99.085980
1875.000000, 99.061970
1876.000000, 99.025300
1877.000000, 99.021250
1878.000000, 99.037410
1879.000000, 99.021110
1880.000000, 99.010000
1881.000000, 99.006510
1882.000000, 98.998010
1883.000000, 98.959110
1884.000000, 98.961960
1885.000000, 98.980720
1886.000000, 98.970030
1887.000000, 98.948060
1888.000000, 98.958580
1889.000000, 98.940080
1890.000000, 98.956330
1891.000000, 98.957270
1892.000000, 98.954290
1893.000000, 98.944370
1894.000000, 98.920690
1895.000000, 98.883230
1896.000000, 98.845530
1897.000000, 98.879010
1898.000000, 98.885520
1899.000000, 98.844020
1900.000000, 98.860180
1901.000000, 98.857030
1902.000000, 98.817770
1903.000000, 98.805680
1904.000000, 98.808230
1905.000000, 98.773940
1906.000000, 98.808290
1907.000000, 98.846580
1908.000000, 98.843870
1909.000000, 98.840300
1910.000000, 98.831640
1911.000000, 98.818560
1912.000000, 98.836340
1913.000000, 98.844690
1914.000000, 98.855100
1915.000000, 98.859370
1916.000000, 98.862160
1917.000000, 98.870590
1918.000000, 98.849080
1919.000000, 98.856200
1920.000000, 98.857430
1921.000000, 98.867660
1922.000000, 98.867820
1923.000000, 98.871610
1924.000000, 98.893430
1925.000000, 98.899720
1926.000000, 98.905950
1927.000000, 98.922870
1928.000000, 98.934130
1929.000000, 98.944700
1930.000000, 98.963710
1931.000000, 98.970130
1932.000000, 98.985360
1933.000000, 98.981520
1934.000000, 98.993020
1935.000000, 99.016180
1936.000000, 99.005950
1937.000000, 98.991490
1938.000000, 99.013590
1939.000000, 99.014700
1940.000000, 99.029500
1941.000000, 99.045390
1942.000000, 99.049950
1943.000000, 99.058710
1944.000000, 99.062750
1945.000000, 99.031130
1946.000000, 99.041650
1947.000000, 99.077340
1948.000000, 99.071220
1949.000000, 99.085070
1950.000000, 99.088470
1951.000000, 99.089860
1952.000000, 99.063810
1953.000000, 99.060190
1954.000000, 99.070750
1955.000000, 99.064070
1956.000000, 99.070940
1957.000000, 99.070340
1958.000000, 99.048290
1959.000000, 99.046700
1960.000000, 99.044710
1961.000000, 99.050170
1962.000000, 99.058440
1963.000000, 99.045670
1964.000000, 99.043940
1965.000000, 99.040240
1966.000000, 99.046670
1967.000000, 99.042920
1968.000000, 99.008890
1969.000000, 98.990230
1970.000000, 98.961150
1971.000000, 98.946890
1972.000000, 98.972580
1973.000000, 98.980660
1974.000000, 98.966040
1975.000000, 98.932240
1976.000000, 98.924660
1977.000000, 98.921320
1978.000000, 98.898550
1979.000000, 98.881560
1980.000000, 98.881070
1981.000000, 98.863050
1982.000000, 98.856450
1983.000000, 98.863060
1984.000000, 98.865360
1985.000000, 98.859830
1986.000000, 98.849770
1987.000000, 98.834040
1988.000000, 98.826560
1989.000000, 98.823310
1990.000000, 98.820370
1991.000000, 98.822550
1992.000000, 98.821350
1993.000000, 98.797170
1994.000000, 98.787540
1995.000000, 98.782070
1996.000000, 98.769080
1997.000000, 98.780950
1998.000000, 98.769530
1999.000000, 98.748170
2000.000000, 98.739510
2001.000000, 98.741700
2002.000000, 98.742410
2003.000000, 98.738880
2004.000000, 98.745160
2005.000000, 98.752130
2006.000000, 98.755430
2007.000000, 98.760790
2008.000000, 98.770870
2009.000000, 98.777560
2010.000000, 98.777640
2011.000000, 98.787380
2012.000000, 98.787260
2013.000000, 98.781030
2014.000000, 98.794360
2015.000000, 98.807100
2016.000000, 98.810730
2017.000000, 98.791800
2018.000000, 98.783920
2019.000000, 98.805100
2020.000000, 98.813410
2021.000000, 98.816350
2022.000000, 98.829050
2023.000000, 98.823100
2024.000000, 98.820290
2025.000000, 98.831550
2026.000000, 98.854970
2027.000000, 98.853080
2028.000000, 98.829260
2029.000000, 98.848070
2030.000000, 98.873280
2031.000000, 98.873530
2032.000000, 98.870660
2033.000000, 98.848900
2034.000000, 98.838370
2035.000000, 98.845480
2036.000000, 98.858680
2037.000000, 98.875630
2038.000000, 98.846860
2039.000000, 98.834320
2040.000000, 98.861950
2041.000000, 98.866510
2042.000000, 98.858240
2043.000000, 98.832140
2044.000000, 98.824780
2045.000000, 98.834970
2046.000000, 98.828580
2047.000000, 98.821730
2048.000000, 98.801580
2049.000000, 98.805650
2050.000000, 98.795590
2051.000000, 98.778600
2052.000000, 98.768280
2053.000000, 98.763280
2054.000000, 98.767940
2055.000000, 98.759970
2056.000000, 98.753470
2057.000000, 98.774830
2058.000000, 98.765270
2059.000000, 98.718940
2060.000000, 98.703300
2061.000000, 98.681530
2062.000000, 98.674170
2063.000000, 98.678920
2064.000000, 98.651710
2065.000000, 98.627880
2066.000000, 98.619410
2067.000000, 98.621220
2068.000000, 98.598390
2069.000000, 98.592940
2070.000000, 98.593540
2071.000000, 98.571280
2072.000000, 98.561650
2073.000000, 98.544580
2074.000000, 98.515210
2075.000000, 98.506520
2076.000000, 98.494560
2077.000000, 98.496080
2078.000000, 98.477070
2079.000000, 98.476610
2080.000000, 98.464350
2081.000000, 98.465680
2082.000000, 98.442550
2083.000000, 98.416580
2084.000000, 98.376930
2085.000000, 98.392440
2086.000000, 98.388730
2087.000000, 98.365950
2088.000000, 98.373150
2089.000000, 98.368570
2090.000000, 98.364040
2091.000000, 98.369010
2092.000000, 98.355840
2093.000000, 98.337860
2094.000000, 98.330150
2095.000000, 98.351620
2096.000000, 98.381100
2097.000000, 98.373090
2098.000000, 98.341780
2099.000000, 98.340140
2100.000000, 98.366830
2101.000000, 98.365390
2102.000000, 98.354950
2103.000000, 98.366890
2104.000000, 98.367280
2105.000000, 98.377130
2106.000000, 98.394170
2107.000000, 98.381760
2108.000000, 98.368910
2109.000000, 98.365280
2110.000000, 98.381140
2111.000000, 98.377280
2112.000000, 98.390830
2113.000000, 98.388180
2114.000000, 98.393830
2115.000000, 98.411330
2116.000000, 98.415670
2117.000000, 98.410020
2118.000000, 98.419340
2119.000000, 98.413530
2120.000000, 98.422930
2121.000000, 98.405210
2122.000000, 98.404570
2123.000000, 98.402970
2124.000000, 98.425990
2125.000000, 98.425960
2126.000000, 98.419630
2127.000000, 98.416260
2128.000000, 98.407770
2129.000000, 98.421960
2130.000000, 98.413720
2131.000000, 98.412970
2132.000000, 98.407870
2133.000000, 98.385040
2134.000000, 98.362020
2135.000000, 98.338470
2136.000000, 98.317710
2137.000000, 98.305970
2138.000000, 98.273700
2139.000000, 98.265370
2140.000000, 98.247890
2141.000000, 98.209560
2142.000000, 98.183360
2143.000000, 98.151620
2144.000000, 98.180300
2145.000000, 98.123750
2146.000000, 98.082360
2147.000000, 98.049140
2148.000000, 98.014700
2149.000000, 97.959540
2150.000000, 97.906470
2151.000000, 97.871090
2152.000000, 97.830160
2153.000000, 97.804820
2154.000000, 97.746580
2155.000000, 97.726110
2156.000000, 97.677440
2157.000000, 97.609950
2158.000000, 97.548440
2159.000000, 97.498060
2160.000000, 97.440910
2161.000000, 97.390600
2162.000000, 97.317690
2163.000000, 97.243230
2164.000000, 97.174370
2165.000000, 97.119620
2166.000000, 97.054990
2167.000000, 96.981260
2168.000000, 96.905270
2169.000000, 96.866130
2170.000000, 96.836170
2171.000000, 96.779480
2172.000000, 96.714340
2173.000000, 96.636560
2174.000000, 96.605210
2175.000000, 96.523730
2176.000000, 96.438530
2177.000000, 96.363760
2178.000000, 96.266840
2179.000000, 96.207170
2180.000000, 96.157950
2181.000000, 96.088820
2182.000000, 96.011050
2183.000000, 95.953450
2184.000000, 95.932370
2185.000000, 95.860110
2186.000000, 95.828910
2187.000000, 95.802840
2188.000000, 95.794070
2189.000000, 95.746970
2190.000000, 95.690500
2191.000000, 95.639960
2192.000000, 95.683250
2193.000000, 95.726910
2194.000000, 96.103100
2195.000000, 96.260210
2196.000000, 96.263610
2197.000000, 96.231260
2198.000000, 96.157900
2199.000000, 96.169020
2200.000000, 96.140840
2200.900000, 96.100770
2201.710000, 96.060700
2202.510000, 96.031930
2203.320000, 96.012760
2204.120000, 95.993080
2204.920000, 95.955810
2205.730000, 95.914840
2206.530000, 95.885070
2207.330000, 95.866100
2208.140000, 95.853230
2208.940000, 95.843650
2209.740000, 95.841380
2210.550000, 95.833310
2211.350000, 95.817540
2212.150000, 95.802870
2212.960000, 95.808500
2213.760000, 95.817720
2214.560000, 95.819050
2215.370000, 95.817680
2216.170000, 95.808410
2216.980000, 95.798940
2217.780000, 95.807870
2218.580000, 95.820190
2219.390000, 95.826320
2220.190000, 95.832150
2220.990000, 95.834780
2221.800000, 95.848310
2222.600000, 95.865140
2223.400000, 95.867860
2224.210000, 95.877590
2225.010000, 95.894820
2225.810000, 95.915850
2226.620000, 95.924580
2227.420000, 95.922810
2228.220000, 95.930530
2229.030000, 95.947660
2229.830000, 95.961090
2230.640000, 95.973420
2231.440000, 95.993950
2232.240000, 96.008280
2233.050000, 96.021000
2233.850000, 96.036030
2234.650000, 96.052560
2235.460000, 96.057690
2236.260000, 96.059820
2237.060000, 96.068650
2237.870000, 96.068770
2238.670000, 96.066000
2239.470000, 96.072730
2240.280000, 96.086360
2241.080000, 96.102990
2241.890000, 96.114320
2242.690000, 96.108340
2243.490000, 96.094770
2244.300000, 96.085500
2245.100000, 96.082930
2245.900000, 96.091760
2246.710000, 96.100990
2247.510000, 96.099510
2248.310000, 96.085840
2249.120000, 96.076870
2249.920000, 96.054600
2250.720000, 96.031030
2251.530000, 96.032760
2252.330000, 96.026680
2253.130000, 95.993210
2253.940000, 95.962040
2254.740000, 95.936270
2255.550000, 95.906400
2256.350000, 95.883430
2257.150000, 95.852950
2257.960000, 95.813580
2258.760000, 95.771810
2259.560000, 95.734540
2260.370000, 95.700470
2261.170000, 95.655400
2261.970000, 95.599720
2262.780000, 95.547650
2263.580000, 95.491780
2264.380000, 95.430410
2265.190000, 95.369640
2265.990000, 95.302770
2266.800000, 95.243790
2267.600000, 95.168120
2268.400000, 95.080350
2269.210000, 95.002580
2270.010000, 94.931010
2270.810000, 94.869640
2271.620000, 94.802060
2272.420000, 94.710390
2273.220000, 94.614520
2274.030000, 94.523850
2274.830000, 94.420480
2275.630000, 94.314910
2276.440000, 94.219230
2277.240000, 94.120060
2278.040000, 94.003190
2278.850000, 93.881220
2279.650000, 93.764750
2280.460000, 93.655980
2281.260000, 93.542400
2282.060000, 93.423230
2282.870000, 93.303760
2283.670000, 93.175790
2284.470000, 93.042920
2285.280000, 92.923850
2286.080000, 92.796970
2286.880000, 92.655800
2287.690000, 92.525130
2288.490000, 92.394360
2289.290000, 92.253190
2290.100000, 92.102920
2290.900000, 91.948940
2291.700000, 91.798170
2292.510000, 91.651500
2293.310000, 91.504830
2294.120000, 91.357160
2294.920000, 91.201390
2295.720000, 91.061210
2296.530000, 90.928540
2297.330000, 90.774470
2298.130000, 90.616100
2298.940000, 90.458930
2299.740000, 90.303360
2300.540000, 90.147680
2301.350000, 89.989010
2302.150000, 89.827840
2302.950000, 89.667770
2303.760000, 89.527200
2304.560000, 89.382630
2305.370000, 89.215450
2306.170000, 89.056380
2306.970000, 88.906310
2307.780000, 88.752040
2308.580000, 88.610670
2309.380000, 88.463800
2310.190000, 88.300920
2310.990000, 88.139950
2311.790000, 87.988080
2312.600000, 87.848610
2313.400000, 87.707040
2314.200000, 87.558870
2315.010000, 87.407390
2315.810000, 87.263720
2316.610000, 87.130650
2317.420000, 87.002680
2318.220000, 86.875910
2319.030000, 86.739240
2319.830000, 86.603760
2320.630000, 86.472690
2321.440000, 86.338720
2322.240000, 86.214650
2323.040000, 86.095780
2323.850000, 85.973010
2324.650000, 85.851430
2325.450000, 85.741160
2326.260000, 85.640490
2327.060000, 85.532620
2327.860000, 85.419250
2328.670000, 85.313980
2329.470000, 85.214400
2330.270000, 85.107130
2331.080000, 85.000760
2331.880000, 84.904590
2332.690000, 84.821420
2333.490000, 84.747850
2334.290000, 84.674370
2335.100000, 84.599700
2335.900000, 84.521530
2336.700000, 84.444660
2337.510000, 84.378490
2338.310000, 84.319120
2339.110000, 84.251440
2339.920000, 84.185870
2340.720000, 84.140000
2341.520000, 84.097630
2342.330000, 84.048160
2343.130000, 83.996090
2343.940000, 83.954410
2344.740000, 83.928540
2345.540000, 83.909970
2346.350000, 83.894500
2347.150000, 83.873430
2347.950000, 83.846160
2348.760000, 83.833280
2349.560000, 83.834310
2350.360000, 83.833740
2351.170000, 83.829670
2351.970000, 83.824300
2352.770000, 83.820730
2353.580000, 83.830650
2354.380000, 83.847280
2355.180000, 83.865810
2355.990000, 83.886540
2356.790000, 83.911470
2357.600000, 83.937790
2358.400000, 83.968320
2359.200000, 84.001250
2360.010000, 84.038280
2360.810000, 84.086210
2361.610000, 84.147680
2362.420000, 84.206250
2363.220000, 84.270510
2364.020000, 84.340180
2364.830000, 84.406550
2365.630000, 84.475120
2366.430000, 84.551190
2367.240000, 84.635160
2368.040000, 84.709230
2368.850000, 84.789490
2369.650000, 84.885660
2370.450000, 84.981330
2371.260000, 85.073100
2372.060000, 85.162370
2372.860000, 85.260340
2373.670000, 85.366510
2374.470000, 85.479670
2375.270000, 85.591640
2376.080000, 85.705810
2376.880000, 85.827780
2377.680000, 85.954250
2378.490000, 86.074620
2379.290000, 86.197790
2380.090000, 86.332650
2380.900000, 86.461920
2381.700000, 86.585090
2382.510000, 86.711660
2383.310000, 86.847130
2384.110000, 86.993300
2384.920000, 87.141570
2385.720000, 87.281540
2386.520000, 87.412000
2387.330000, 87.545370
2388.130000, 87.690840
2388.930000, 87.834510
2389.740000, 87.975380
2390.540000, 88.124350
2391.340000, 88.271720
2392.150000, 88.417380
2392.950000, 88.573250
2393.750000, 88.729520
2394.560000, 88.881790
2395.360000, 89.024760
2396.170000, 89.169230
2396.970000, 89.324300
2397.770000, 89.476460
2398.580000, 89.628730
2399.380000, 89.785400
2400.180000, 89.936370
2400.990000, 90.076440
2401.790000, 90.213710
2402.590000, 90.356980
2403.400000, 90.504540
2404.200000, 90.650010
2405.000000, 90.791180
2405.810000, 90.927050
2406.610000, 91.063120
2407.420000, 91.197690
2408.220000, 91.322960
2409.020000, 91.453320
2409.830000, 91.588390
2410.630000, 91.712360
2411.430000, 91.828630
2412.240000, 91.948100
2413.040000, 92.071670
2413.840000, 92.186840
2414.650000, 92.286800
2415.450000, 92.386570
2416.250000, 92.489040
2417.060000, 92.582610
2417.860000, 92.674580
2418.660000, 92.766650
2419.470000, 92.851720
2420.270000, 92.935390
2421.080000, 93.017550
2421.880000, 93.090420
2422.680000, 93.148390
2423.490000, 93.198560
2424.290000, 93.250330
2425.090000, 93.302000
2425.900000, 93.347470
2426.700000, 93.384530
2427.500000, 93.421900
2428.310000, 93.461170
2429.110000, 93.492940
2429.910000, 93.507510
2430.720000, 93.511480
2431.520000, 93.513650
2432.320000, 93.513310
2433.130000, 93.516080
2433.930000, 93.515850
2434.740000, 93.509820
2435.540000, 93.489090
2436.340000, 93.445460
2437.150000, 93.398830
2437.950000, 93.361890
2438.750000, 93.326560
2439.560000, 93.282230
2440.360000, 93.231000
2441.160000, 93.178470
2441.970000, 93.113940
2442.770000, 93.041710
2443.570000, 92.972570
2444.380000, 92.894740
2445.180000, 92.803810
2445.990000, 92.708680
2446.790000, 92.610850
2447.590000, 92.505820
2448.400000, 92.394990
2449.200000, 92.285260
2450.000000, 92.175720
2450.810000, 92.055790
2451.610000, 91.919160
2452.410000, 91.769230
2453.220000, 91.627300
2454.020000, 91.493270
2454.820000, 91.356040
2455.630000, 91.208300
2456.430000, 91.052270
2457.230000, 90.890540
2458.040000, 90.725610
2458.840000, 90.562280
2459.650000, 90.395150
2460.450000, 90.217820
2461.250000, 90.039780
2462.060000, 89.872150
2462.860000, 89.710720
2463.660000, 89.533390
2464.470000, 89.343860
2465.270000, 89.156330
2466.070000, 88.969500
2466.880000, 88.781660
2467.680000, 88.596530
2468.480000, 88.404800
2469.290000, 88.202070
2470.090000, 88.002540
2470.890000, 87.808410
2471.700000, 87.619780
2472.500000, 87.422740
2473.310000, 87.211410
2474.110000, 87.004880
2474.910000, 86.799050
2475.720000, 86.589420
2476.520000, 86.395590
2477.320000, 86.211360
2478.130000, 86.017020
2478.930000, 85.811290
2479.730000, 85.601360
2480.540000, 85.389530
2481.340000, 85.185300
2482.140000, 84.987870
2482.950000, 84.797340
2483.750000, 84.614310
2484.560000, 84.415270
2485.360000, 84.201940
2486.160000, 84.002410
2486.970000, 83.816680
2487.770000, 83.631750
2488.570000, 83.439020
2489.380000, 83.249190
2490.180000, 83.068250
2490.980000, 82.885620
2491.790000, 82.701090
2492.590000, 82.522060
2493.390000, 82.350230
2494.200000, 82.186300
2495.000000, 82.014070
2495.800000, 81.831930
2496.610000, 81.655500
2497.410000, 81.489570
2498.220000, 81.329440
2499.020000, 81.174710
2499.820000, 81.025780
2500.630000, 80.879150
2501.430000, 80.735310
2502.230000, 80.601280
2503.040000, 80.465350
2503.840000, 80.314620
2504.640000, 80.172590
2505.450000, 80.049660
2506.250000, 79.921730
2507.050000, 79.782290
2507.860000, 79.653260
2508.660000, 79.538930
2509.470000, 79.434800
2510.270000, 79.331370
2511.070000, 79.220240
2511.880000, 79.105310
2512.680000, 79.003070
2513.480000, 78.909540
2514.290000, 78.826410
2515.090000, 78.752780
2515.890000, 78.673850
2516.700000, 78.593020
2517.500000, 78.514990
2518.300000, 78.438960
2519.110000, 78.372420
2519.910000, 78.306390
2520.710000, 78.233060
2521.520000, 78.166230
2522.320000, 78.118000
2523.130000, 78.088270
2523.930000, 78.066240
2524.730000, 78.023800
2525.540000, 77.979270
2526.340000, 77.947440
2527.140000, 77.922110
2527.950000, 77.900980
2528.750000, 77.883550
2529.550000, 77.870120
2530.360000, 77.869380
2531.160000, 77.894350
2531.960000, 77.926620
2532.770000, 77.931090
2533.570000, 77.909460
2534.370000, 77.890930
2535.180000, 77.926400
2535.980000, 77.985260
2536.790000, 77.992930
2537.590000, 77.967400
2538.390000, 77.978970
2539.200000, 78.012340
2540.000000, 78.044310
2540.800000, 78.090880
2541.610000, 78.170340
2542.410000, 78.272510
2543.210000, 78.360980
2544.020000, 78.412250
2544.820000, 78.452820
2545.620000, 78.480990
2546.430000, 78.528560
2547.230000, 78.644830
2548.040000, 78.790990
2548.840000, 78.856060
2549.640000, 78.885930
2550.450000, 78.966100
2551.250000, 79.076470
2552.050000, 79.191240
2552.860000, 79.319010
2553.660000, 79.402170
2554.460000, 79.440440
2555.270000, 79.505110
2556.070000, 79.594480
2556.870000, 79.703550
2557.680000, 79.833620
2558.480000, 79.974990
2559.280000, 80.139850
2560.090000, 80.354420
2560.890000, 80.590390
2561.700000, 80.759460
2562.500000, 80.875130
2563.300000, 80.988500
2564.110000, 81.120470
2564.910000, 81.248130
2565.710000, 81.313900
2566.520000, 81.377870
2567.320000, 81.515440
2568.120000, 81.714710
2568.930000, 81.951580
2569.730000, 82.177450
2570.530000, 82.272110
2571.340000, 82.319780
2572.140000, 82.443950
2572.940000, 82.676420
2573.750000, 82.937590
2574.550000, 83.093960
2575.360000, 83.201430
2576.160000, 83.375790
2576.960000, 83.592560
2577.770000, 83.717430
2578.570000, 83.779000
2579.370000, 83.912370
2580.180000, 84.116240
2580.980000, 84.383410
2581.780000, 84.610580
2582.590000, 84.752440
2583.390000, 84.982810
2584.190000, 85.260880
2585.000000, 85.334350
2585.800000, 85.378920
2586.610000, 85.556390
2587.410000, 85.838660
2588.210000, 86.045220
2589.020000, 86.137290
2589.820000, 86.222760
2590.620000, 86.305530
2591.430000, 86.432300
2592.230000, 86.658070
2593.030000, 86.914440
2593.840000, 87.136700
2594.640000, 87.426670
2595.440000, 87.764140
2596.250000, 87.790510
2597.050000, 87.748580
2597.850000, 87.759050
2598.660000, 87.813820
2599.460000, 87.918580
2600.270000, 88.075050
2601.070000, 88.275220
2601.870000, 88.470290
2602.680000, 88.623360
2603.480000, 88.832730
2604.280000, 89.083000
2605.090000, 89.254160
2605.890000, 89.320130
2606.690000, 89.343900
2607.500000, 89.367270
2608.300000, 89.385140
2609.100000, 89.443610
2609.910000, 89.535880
2610.710000, 89.577040
2611.520000, 89.614210
2612.320000, 89.713780
2613.120000, 89.836450
2613.930000, 89.902520
2614.730000, 89.956090
2615.530000, 90.072860
2616.340000, 90.292930
2617.140000, 90.503690
2617.940000, 90.456260
2618.750000, 90.358730
2619.550000, 90.374300
2620.350000, 90.432870
2621.160000, 90.355540
2621.960000, 90.231510
2622.760000, 90.166470
2623.570000, 90.143840
2624.370000, 90.149910
2625.180000, 90.196680
2625.980000, 90.298150
2626.780000, 90.372920
2627.590000, 90.291490
2628.390000, 90.231550
2629.190000, 90.299720
2630.000000, 90.442590
2630.800000, 90.414260
2631.600000, 90.175430
2632.410000, 90.048300
2633.210000, 90.007370
2634.010000, 89.920030
2634.820000, 89.731600
2635.620000, 89.568570
2636.420000, 89.467340
2637.230000, 89.382110
2638.030000, 89.295780
2638.840000, 89.204850
2639.640000, 89.112110
2640.440000, 89.033180
2641.250000, 88.972250
2642.050000, 88.879020
2642.850000, 88.708090
2643.660000, 88.539260
2644.460000, 88.454030
2645.260000, 88.409900
2646.070000, 88.293160
2646.870000, 88.067530
2647.670000, 87.841400
2648.480000, 87.659170
2649.280000, 87.499840
2650.090000, 87.361610
2650.890000, 87.263280
2651.690000, 87.212440
2652.500000, 87.103010
2653.300000, 86.850880
2654.100000, 86.640250
2654.910000, 86.508320
2655.710000, 86.324590
2656.510000, 86.067060
2657.320000, 85.853720
2658.120000, 85.693990
2658.920000, 85.581360
2659.730000, 85.453930
2660.530000, 85.242200
2661.330000, 85.033370
2662.140000, 84.825940
2662.940000, 84.630200
2663.750000, 84.535870
2664.550000, 84.538640
2665.350000, 84.512810
2666.160000, 84.325180
2666.960000, 84.002250
2667.760000, 83.621220
2668.570000, 83.377980
2669.370000, 83.267550
2670.170000, 83.130220
2670.980000, 82.695990
2671.780000, 82.378060
2672.580000, 82.221130
2673.390000, 82.057400
2674.190000, 81.902960
2674.990000, 81.797930
2675.800000, 81.741000
2676.600000, 81.675070
2677.410000, 81.406640
2678.210000, 81.011810
2679.010000, 80.677180
2679.820000, 80.293150
2680.620000, 79.919810
2681.420000, 79.646680
2682.230000, 79.434850
2683.030000, 79.210420
2683.830000, 78.856090
2684.640000, 78.402960
2685.440000, 78.009730
2686.240000, 77.585490
2687.050000, 77.010160
2687.850000, 76.462430
2688.660000, 75.959900
2689.460000, 75.379270
2690.260000, 74.815040
2691.070000, 74.336210
2691.870000, 73.902870
2692.670000, 73.564540
2693.480000, 73.273410
2694.280000, 72.840280
2695.080000, 72.326650
2695.890000, 71.772220
2696.690000, 71.169990
2697.490000, 70.683250
2698.300000, 70.265620
2699.100000, 69.854690
2699.900000, 69.483960
2700.710000, 69.122330
2701.510000, 68.616200
2702.320000, 68.093270
2703.120000, 67.718230
2703.920000, 67.391800
2704.730000, 67.063070
2705.530000, 66.734540
2706.330000, 66.419910
2707.140000, 66.150180
2707.940000, 65.961850
2708.740000, 65.816410
2709.550000, 65.609880
2710.350000, 65.332750
2711.150000, 65.002320
2711.960000, 64.644190
2712.760000, 64.375060
2713.570000, 64.175030
2714.370000, 63.982500
2715.170000, 63.804060
2715.980000, 63.668830
2716.780000, 63.585000
2717.580000, 63.520370
2718.390000, 63.450240
2719.190000, 63.420410
2719.990000, 63.463780
2720.800000, 63.420040
2721.600000, 63.175310
2722.400000, 63.015380
2723.210000, 62.990650
2724.010000, 63.039920
2724.810000, 63.070790
2725.620000, 62.963760
2726.420000, 62.821120
2727.230000, 62.742190
2728.030000, 62.713860
2728.830000, 62.709930
2729.640000, 62.720600
2730.440000, 62.747370
2731.240000, 62.791040
2732.050000, 62.843100
2732.850000, 62.893870
2733.650000, 62.956040
2734.460000, 63.047210
2735.260000, 63.137280
2736.060000, 63.180350
2736.870000, 63.217620
2737.670000, 63.304880
2738.470000, 63.474350
2739.280000, 63.751920
2740.080000, 64.004390
2740.890000, 64.086760
2741.690000, 64.086830
2742.490000, 64.048600
2743.300000, 64.025360
2744.100000, 64.063430
2744.900000, 64.164600
2745.710000, 64.295070
2746.510000, 64.415740
2747.310000, 64.535910
2748.120000, 64.682380
2748.920000, 64.841550
2749.720000, 64.992410
2750.530000, 65.153080
2751.330000, 65.353650
2752.140000, 65.569020
2752.940000, 65.741490
2753.740000, 65.894860
2754.550000, 66.105730
2755.350000, 66.428590
2756.150000, 66.671760
2756.960000, 66.726330
2757.760000, 66.775400
2758.560000, 66.859970
2759.370000, 66.973540
2760.170000, 67.112410
2760.970000, 67.268470
2761.780000, 67.442040
2762.580000, 67.641410
2763.380000, 67.845480
2764.190000, 67.996750
2764.990000, 68.102120
2765.800000, 68.222390
2766.600000, 68.385450
2767.400000, 68.565720
2768.210000, 68.730990
2769.010000, 68.873960
2769.810000, 69.038730
2770.620000, 69.289600
2771.420000, 69.592170
2772.220000, 69.834030
2773.030000, 69.985500
2773.830000, 70.105870
2774.630000, 70.258240
2775.440000, 70.464610
2776.240000, 70.712280
2777.040000, 70.975550
2777.850000, 71.213720
2778.650000, 71.401880
2779.460000, 71.560750
2780.260000, 71.737420
2781.060000, 71.970990
2781.870000, 72.227360
2782.670000, 72.433630
2783.470000, 72.590100
2784.280000, 72.728960
2785.080000, 72.881730
2785.880000, 73.084000
2786.690000, 73.359970
2787.490000, 73.667140
2788.290000, 73.895710
2789.100000, 74.026380
2789.900000, 74.142340
2790.710000, 74.291710
2791.510000, 74.464580
2792.310000, 74.650650
2793.120000, 74.857020
2793.920000, 75.067190
2794.720000, 75.266960
2795.530000, 75.472120
2796.330000, 75.683390
2797.130000, 75.891560
2797.940000, 76.094530
2798.740000, 76.290000
2799.540000, 76.489070
2800.350000, 76.707140
2801.150000, 76.942900
2801.950000, 77.206970
2802.760000, 77.524840
2803.560000, 77.845610
2804.370000, 78.049880
2805.170000, 78.153050
2805.970000, 78.258020
2806.780000, 78.405580
2807.580000, 78.577750
2808.380000, 78.758120
2809.190000, 78.934590
2809.990000, 79.097960
2810.790000, 79.258630
2811.600000, 79.424500
2812.400000, 79.595970
2813.200000, 79.782830
2814.010000, 79.991900
2814.810000, 80.206570
2815.610000, 80.389140
2816.420000, 80.526510
2817.220000, 80.657780
2818.030000, 80.822450
2818.830000, 81.021010
2819.630000, 81.226880
2820.440000, 81.409950
2821.240000, 81.552020
2822.040000, 81.651690
2822.850000, 81.733660
2823.650000, 81.822430
2824.450000, 81.924090
2825.260000, 82.036460
2826.060000, 82.161430
2826.860000, 82.302400
2827.670000, 82.441670
2828.470000, 82.545040
2829.280000, 82.615410
2830.080000, 82.688870
2830.880000, 82.783540
2831.690000, 82.894810
2832.490000, 83.012680
2833.290000, 83.130150
2834.100000, 83.238320
2834.900000, 83.322790
2835.700000, 83.382150
2836.510000, 83.440720
2837.310000, 83.518990
2838.110000, 83.594760
2838.920000, 83.622130
2839.720000, 83.609600
2840.520000, 83.606070
2841.330000, 83.626230
2842.130000, 83.651000
2842.940000, 83.667070
2843.740000, 83.677140
2844.540000, 83.686610
2845.350000, 83.700580
2846.150000, 83.717650
2846.950000, 83.730720
2847.760000, 83.740880
2848.560000, 83.752450
2849.360000, 83.750820
2850.170000, 83.716090
2850.970000, 83.662660
2851.770000, 83.624130
2852.580000, 83.614900
2853.380000, 83.626060
2854.190000, 83.629030
2854.990000, 83.589700
2855.790000, 83.503070
2856.600000, 83.398840
2857.400000, 83.304110
2858.200000, 83.228680
2859.010000, 83.169340
2859.810000, 83.109010
2860.610000, 83.029080
2861.420000, 82.931150
2862.220000, 82.830620
2863.020000, 82.735690
2863.830000, 82.642660
2864.630000, 82.548420
2865.430000, 82.458490
2866.240000, 82.372260
2867.040000, 82.273030
2867.850000, 82.153500
2868.650000, 82.026770
2869.450000, 81.904040
2870.260000, 81.792300
2871.060000, 81.691170
2871.860000, 81.581940
2872.670000, 81.448810
2873.470000, 81.298380
2874.270000, 81.144950
2875.080000, 80.995820
2875.880000, 80.853890
2876.680000, 80.718850
2877.490000, 80.580520
2878.290000, 80.426190
2879.090000, 80.261860
2879.900000, 80.105230
2880.700000, 79.962700
2881.510000, 79.824070
2882.310000, 79.679330
2883.110000, 79.529300
2883.920000, 79.373070
2884.720000, 79.204140
2885.520000, 79.028610
2886.330000, 78.863980
2887.130000, 78.712850
2887.930000, 78.558910
2888.740000, 78.390680
2889.540000, 78.215150
2890.340000, 78.042120
2891.150000, 77.871390
2891.950000, 77.699960
2892.760000, 77.529330
2893.560000, 77.360290
2894.360000, 77.188860
2895.170000, 77.011530
2895.970000, 76.832200
2896.770000, 76.656570
2897.580000, 76.486340
2898.380000, 76.324610
2899.180000, 76.179170
2899.990000, 76.045640
2900.790000, 75.893910
2901.590000, 75.705980
2902.400000, 75.507150
2903.200000, 75.325720
2904.000000, 75.161090
2904.810000, 74.995550
2905.610000, 74.820820
2906.420000, 74.646590
2907.220000, 74.483060
2908.020000, 74.328230
2908.830000, 74.174800
2909.630000, 74.017670
2910.430000, 73.857340
2911.240000, 73.696800
2912.040000, 73.536470
2912.840000, 73.376340
2913.650000, 73.219310
2914.450000, 73.066480
2915.250000, 72.915250
2916.060000, 72.763120
2916.860000, 72.608680
2917.660000, 72.451950
2918.470000, 72.296620
2919.270000, 72.146590
2920.080000, 72.002660
2920.880000, 71.865130
2921.680000, 71.736600
2922.490000, 71.614960
2923.290000, 71.487930
2924.090000, 71.344500
2924.900000, 71.191570
2925.700000, 71.044140
2926.500000, 70.907710
2927.310000, 70.780480
2928.110000, 70.661240
2928.910000, 70.547510
2929.720000, 70.434680
2930.520000, 70.318150
2931.330000, 70.197920
2932.130000, 70.079190
2932.930000, 69.965360
2933.740000, 69.852720
2934.540000, 69.739790
2935.340000, 69.631860
2936.150000, 69.531430
2936.950000, 69.433700
2937.750000, 69.335970
2938.560000, 69.240940
2939.360000, 69.150100
2940.160000, 69.060070
2940.970000, 68.968240
2941.770000, 68.877910
2942.570000, 68.793080
2943.380000, 68.711450
2944.180000, 68.629120
2944.990000, 68.547890
2945.790000, 68.473750
2946.590000, 68.408520
2947.400000, 68.345590
2948.200000, 68.277360
2949.000000, 68.202830
2949.810000, 68.127700
2950.610000, 68.056570
2951.410000, 67.990330
2952.220000, 67.931600
2953.020000, 67.883470
2953.820000, 67.842840
2954.630000, 67.800710
2955.430000, 67.755280
2956.240000, 67.710750
2957.040000, 67.668510
2957.840000, 67.626980
2958.650000, 67.587050
2959.450000, 67.551920
2960.250000, 67.523790
2961.060000, 67.500660
2961.860000, 67.478030
2962.660000, 67.453190
2963.470000, 67.427760
2964.270000, 67.406230
2965.070000, 67.391600
2965.880000, 67.382570
2966.680000, 67.376040
2967.480000, 67.372510
2968.290000, 67.374270
2969.090000, 67.379340
2969.900000, 67.383710
2970.700000, 67.387380
2971.500000, 67.390050
2972.310000, 67.390920
2973.110000, 67.395390
2973.910000, 67.407860
2974.720000, 67.425620
2975.520000, 67.444290
2976.320000, 67.463360
2977.130000, 67.484230
2977.930000, 67.507300
2978.730000, 67.532770
2979.540000, 67.561140
2980.340000, 67.591800
2981.140000, 67.625170
2981.950000, 67.663540
2982.750000, 67.708710
2983.560000, 67.758280
2984.360000, 67.806150
2985.160000, 67.851620
2985.970000, 67.897980
2986.770000, 67.946450
2987.570000, 67.997520
2988.380000, 68.052890
2989.180000, 68.114660
2989.980000, 68.182930
2990.790000, 68.255400
2991.590000, 68.327660
2992.390000, 68.397330
2993.200000, 68.466900
2994.000000, 68.539870
2994.810000, 68.617440
2995.610000, 68.698910
2996.410000, 68.781880
2997.220000, 68.861540
2998.020000, 68.937410
2998.820000, 69.015380
2999.630000, 69.099950
3000.430000, 69.190720
3001.230000, 69.284390
3002.040000, 69.378960
3002.840000, 69.475020
3003.640000, 69.574990
3004.450000, 69.681160
3005.250000, 69.793330
3006.050000, 69.908100
3006.860000, 70.019870
3007.660000, 70.127340
3008.470000, 70.232910
3009.270000, 70.338270
3010.070000, 70.444740
3010.880000, 70.555010
3011.680000, 70.670880
3012.480000, 70.791350
3013.290000, 70.913820
3014.090000, 71.036690
3014.890000, 71.160250
3015.700000, 71.285220
3016.500000, 71.414090
3017.300000, 71.549760
3018.110000, 71.689630
3018.910000, 71.827200
3019.710000, 71.961470
3020.520000, 72.097230
3021.320000, 72.238400
3022.130000, 72.383270
3022.930000, 72.525640
3023.730000, 72.662210
3024.540000, 72.795780
3025.340000, 72.930950
3026.140000, 73.068610
3026.950000, 73.208780
3027.750000, 73.351750
3028.550000, 73.495720
3029.360000, 73.639190
3030.160000, 73.783160
3030.960000, 73.931430
3031.770000, 74.086690
3032.570000, 74.245860
3033.380000, 74.401430
3034.180000, 74.549100
3034.980000, 74.694570
3035.790000, 74.844240
3036.590000, 74.999910
3037.390000, 75.157970
3038.200000, 75.311940
3039.000000, 75.458610
3039.800000, 75.601280
3040.610000, 75.746050
3041.410000, 75.894920
3042.210000, 76.044790
3043.020000, 76.194860
3043.820000, 76.346320
3044.620000, 76.497590
3045.430000, 76.647360
3046.230000, 76.796130
3047.040000, 76.945600
3047.840000, 77.095970
3048.640000, 77.244840
3049.450000, 77.390400
3050.250000, 77.537070
3051.050000, 77.692040
3051.860000, 77.850110
3052.660000, 78.002980
3053.460000, 78.150050
3054.270000, 78.294920
3055.070000, 78.437880
3055.870000, 78.576150
3056.680000, 78.708920
3057.480000, 78.840290
3058.280000, 78.970760
3059.090000, 79.098430
3059.890000, 79.224500
3060.700000, 79.351160
3061.500000, 79.479530
3062.300000, 79.608300
3063.110000, 79.735270
3063.910000, 79.858840
3064.710000, 79.979110
3065.520000, 80.099280
3066.320000, 80.221140
3067.120000, 80.341210
3067.930000, 80.455880
3068.730000, 80.565650
3069.530000, 80.673220
3070.340000, 80.781490
3071.140000, 80.890060
3071.950000, 80.996730
3072.750000, 81.097090
3073.550000, 81.189560
3074.360000, 81.277930
3075.160000, 81.367600
3075.960000, 81.459870
3076.770000, 81.551440
3077.570000, 81.637710
3078.370000, 81.718770
3079.180000, 81.799340
3079.980000, 81.880710
3080.780000, 81.958780
3081.590000, 82.028150
3082.390000, 82.087020
3083.190000, 82.139190
3084.000000, 82.191350
3084.800000, 82.247320
3085.610000, 82.303590
3086.410000, 82.355060
3087.210000, 82.401830
3088.020000, 82.445800
3088.820000, 82.488170
3089.620000, 82.528630
3090.430000, 82.565300
3091.230000, 82.597870
3092.030000, 82.627540
3092.840000, 82.653610
3093.640000, 82.673580
3094.440000, 82.687150
3095.250000, 82.696010
3096.050000, 82.701380
3096.860000, 82.702850
3097.660000, 82.699920
3098.460000, 82.692590
3099.270000, 82.682660
3100.070000, 82.670630
3100.870000, 82.656890
3101.680000, 82.642060
3102.480000, 82.626130
3103.280000, 82.608400
3104.090000, 82.587970
3104.890000, 82.564040
3105.690000, 82.534110
3106.500000, 82.496180
3107.300000, 82.451840
3108.100000, 82.405110
3108.910000, 82.359480
3109.710000, 82.316250
3110.520000, 82.270120
3111.320000, 82.213890
3112.120000, 82.148460
3112.930000, 82.080520
3113.730000, 82.015790
3114.530000, 81.954860
3115.340000, 81.891530
3116.140000, 81.819900
3116.940000, 81.744970
3117.750000, 81.668140
3118.550000, 81.588200
3119.350000, 81.503770
3120.160000, 81.414440
3120.960000, 81.321510
3121.760000, 81.225980
3122.570000, 81.128450
3123.370000, 81.029120
3124.180000, 80.929080
3124.980000, 80.829650
3125.780000, 80.731220
3126.590000, 80.631290
3127.390000, 80.523060
3128.190000, 80.408130
3129.000000, 80.289600
3129.800000, 80.169360
3130.600000, 80.047630
3131.410000, 79.924200
3132.210000, 79.799970
3133.010000, 79.676840
3133.820000, 79.553510
3134.620000, 79.427380
3135.430000, 79.296840
3136.230000, 79.161910
3137.030000, 79.025080
3137.840000, 78.890650
3138.640000, 78.758520
3139.440000, 78.625590
3140.250000, 78.489760
3141.050000, 78.350930
3141.850000, 78.209890
3142.660000, 78.067860
3143.460000, 77.925230
3144.260000, 77.783400
3145.070000, 77.642270
3145.870000, 77.500140
3146.670000, 77.354410
3147.480000, 77.202870
3148.280000, 77.047140
3149.090000, 76.891610
3149.890000, 76.737680
3150.690000, 76.585950
3151.500000, 76.436120
3152.300000, 76.287090
3153.100000, 76.136950
3153.910000, 75.986120
3154.710000, 75.836690
3155.510000, 75.688360
3156.320000, 75.539330
3157.120000, 75.386800
3157.920000, 75.230170
3158.730000, 75.075730
3159.530000, 74.924600
3160.330000, 74.774170
3161.140000, 74.621340
3161.940000, 74.465010
3162.750000, 74.308680
3163.550000, 74.155250
3164.350000, 74.002810
3165.160000, 73.850580
3165.960000, 73.698550
3166.760000, 73.547620
3167.570000, 73.398990
3168.370000, 73.252560
3169.170000, 73.107530
3169.980000, 72.963100
3170.780000, 72.818560
3171.580000, 72.673930
3172.390000, 72.529100
3173.190000, 72.383070
3174.000000, 72.235240
3174.800000, 72.087010
3175.600000, 71.940380
3176.410000, 71.797640
3177.210000, 71.657510
3178.010000, 71.516380
3178.820000, 71.374750
3179.620000, 71.234120
3180.420000, 71.095490
3181.230000, 70.958760
3182.030000, 70.823620
3182.830000, 70.691490
3183.640000, 70.562260
3184.440000, 70.435130
3185.240000, 70.308400
3186.050000, 70.180370
3186.850000, 70.051340
3187.660000, 69.922800
3188.460000, 69.796370
3189.260000, 69.673440
3190.070000, 69.554810
3190.870000, 69.438780
3191.670000, 69.320450
3192.480000, 69.200020
3193.280000, 69.079380
3194.080000, 68.960850
3194.890000, 68.845620
3195.690000, 68.733190
3196.490000, 68.624360
3197.300000, 68.518230
3198.100000, 68.413000
3198.910000, 68.305460
3199.710000, 68.197530
3200.510000, 68.095300
3201.320000, 67.998670
3202.120000, 67.904840
3202.920000, 67.809610
3203.730000, 67.711980
3204.530000, 67.617850
3205.330000, 67.527210
3206.140000, 67.438180
3206.940000, 67.348450
3207.740000, 67.257920
3208.550000, 67.169990
3209.350000, 67.083760
3210.150000, 66.998230
3210.960000, 66.912890
3211.760000, 66.828060
3212.570000, 66.744130
3213.370000, 66.662200
3214.170000, 66.584570
3214.980000, 66.512840
3215.780000, 66.447410
3216.580000, 66.383570
3217.390000, 66.317240
3218.190000, 66.248910
3218.990000, 66.179880
3219.800000, 66.112550
3220.600000, 66.050220
3221.400000, 65.992690
3222.210000, 65.939750
3223.010000, 65.890720
3223.810000, 65.844790
3224.620000, 65.799760
3225.420000, 65.752430
3226.230000, 65.703000
3227.030000, 65.652270
3227.830000, 65.602330
3228.640000, 65.557700
3229.440000, 65.518270
3230.240000, 65.482040
3231.050000, 65.447210
3231.850000, 65.412480
3232.650000, 65.378250
3233.460000, 65.346810
3234.260000, 65.318980
3235.060000, 65.294350
3235.870000, 65.272020
3236.670000, 65.251290
3237.480000, 65.231860
3238.280000, 65.213530
3239.080000, 65.195900
3239.890000, 65.178660
3240.690000, 65.164430
3241.490000, 65.154600
3242.300000, 65.148470
3243.100000, 65.144740
3243.900000, 65.140910
3244.710000, 65.136980
3245.510000, 65.134940
3246.310000, 65.135310
3247.120000, 65.138080
3247.920000, 65.142750
3248.720000, 65.148020
3249.530000, 65.152690
3250.330000, 65.157260
3251.140000, 65.162420
3251.940000, 65.171590
3252.740000, 65.184560
3253.550000, 65.199630
3254.350000, 65.216600
3255.150000, 65.235270
3255.960000, 65.258540
3256.760000, 65.285200
3257.560000, 65.314870
3258.370000, 65.347140
3259.170000, 65.382610
3259.970000, 65.420280
3260.780000, 65.457350
3261.580000, 65.492920
3262.380000, 65.526880
3263.190000, 65.559950
3263.990000, 65.592320
3264.800000, 65.625590
3265.600000, 65.661660
3266.400000, 65.703330
3267.210000, 65.752300
3268.010000, 65.804270
3268.810000, 65.858630
3269.620000, 65.914800
3270.420000, 65.973370
3271.220000, 66.032840
3272.030000, 66.092510
3272.830000, 66.151780
3273.630000, 66.210350
3274.440000, 66.269110
3275.240000, 66.330180
3276.050000, 66.393950
3276.850000, 66.460620
3277.650000, 66.529690
3278.460000, 66.601260
3279.260000, 66.674830
3280.060000, 66.749790
3280.870000, 66.824760
3281.670000, 66.899530
3282.470000, 66.976700
3283.280000, 67.056870
3284.080000, 67.139840
3284.880000, 67.223910
3285.690000, 67.307270
3286.490000, 67.391040
3287.290000, 67.475710
3288.100000, 67.562280
3288.900000, 67.649850
3289.710000, 67.738120
3290.510000, 67.827490
3291.310000, 67.918350
3292.120000, 68.013120
3292.920000, 68.111490
3293.720000, 68.212860
3294.530000, 68.316830
3295.330000, 68.421200
3296.130000, 68.523770
3296.940000, 68.626430
3297.740000, 68.730200
3298.540000, 68.837070
3299.350000, 68.943740
3300.150000, 69.047810
3300.960000, 69.149880
3301.760000, 69.251450
3302.560000, 69.356520
3303.370000, 69.464380
3304.170000, 69.575050
3304.970000, 69.688620
3305.780000, 69.805190
3306.580000, 69.921460
3307.380000, 70.037330
3308.190000, 70.153300
3308.990000, 70.272160
3309.790000, 70.393630
3310.600000, 70.515800
3311.400000, 70.637970
3312.200000, 70.759340
3313.010000, 70.881610
3313.810000, 71.005180
3314.620000, 71.130140
3315.420000, 71.256110
3316.220000, 71.382380
3317.030000, 71.509050
3317.830000, 71.636820
3318.630000, 71.766490
3319.440000, 71.895660
3320.240000, 72.021020
3321.040000, 72.142990
3321.850000, 72.262260
3322.650000, 72.383230
3323.450000, 72.506100
3324.260000, 72.631170
3325.060000, 72.758740
3325.860000, 72.889800
3326.670000, 73.021570
3327.470000, 73.153340
3328.280000, 73.284710
3329.080000, 73.415880
3329.880000, 73.545750
3330.690000, 73.673620
3331.490000, 73.798980
3332.290000, 73.923650
3333.100000, 74.051320
3333.900000, 74.182390
3334.700000, 74.317060
3335.510000, 74.452130
3336.310000, 74.583900
3337.110000, 74.712070
3337.920000, 74.836530
3338.720000, 74.958800
3339.530000, 75.081870
3340.330000, 75.206240
3341.130000, 75.332310
3341.940000, 75.458980
3342.740000, 75.583350
3343.540000, 75.705310
3344.350000, 75.824580
3345.150000, 75.943250
3345.950000, 76.062020
3346.760000, 76.180190
3347.560000, 76.296960
3348.360000, 76.412930
3349.170000, 76.530490
3349.970000, 76.649960
3350.770000, 76.771630
3351.580000, 76.892600
3352.380000, 77.012270
3353.190000, 77.130340
3353.990000, 77.246010
3354.790000, 77.356670
3355.600000, 77.463440
3356.400000, 77.566810
3357.200000, 77.668080
3358.010000, 77.768350
3358.810000, 77.868220
3359.610000, 77.967990
3360.420000, 78.068950
3361.220000, 78.169120
3362.020000, 78.267190
3362.830000, 78.361960
3363.630000, 78.451630
3364.430000, 78.539200
3365.240000, 78.625470
3366.040000, 78.711240
3366.850000, 78.796700
3367.650000, 78.880770
3368.450000, 78.963140
3369.260000, 79.043010
3370.060000, 79.120480
3370.860000, 79.195550
3371.670000, 79.267820
3372.470000, 79.335980
3373.270000, 79.403750
3374.080000, 79.472620
3374.880000, 79.543190
3375.680000, 79.613960
3376.490000, 79.681030
3377.290000, 79.744300
3378.100000, 79.802660
3378.900000, 79.857730
3379.700000, 79.911200
3380.510000, 79.962570
3381.310000, 80.010440
3382.110000, 80.055510
3382.920000, 80.099880
3383.720000, 80.143840
3384.520000, 80.186910
3385.330000, 80.227480
3386.130000, 80.265550
3386.930000, 80.300720
3387.740000, 80.331290
3388.540000, 80.358860
3389.340000, 80.383920
3390.150000, 80.407290
3390.950000, 80.429860
3391.760000, 80.450430
3392.560000, 80.468500
3393.360000, 80.480370
3394.170000, 80.488140
3394.970000, 80.492600
3395.770000, 80.493970
3396.580000, 80.492840
3397.380000, 80.490010
3398.180000, 80.485580
3398.990000, 80.479050
3399.790000, 80.471020
3400.590000, 80.461390
3401.400000, 80.449650
3402.200000, 80.431920
3403.000000, 80.409490
3403.810000, 80.382760
3404.610000, 80.351930
3405.420000, 80.319700
3406.220000, 80.286770
3407.020000, 80.253130
3407.830000, 80.218300
3408.630000, 80.182270
3409.430000, 80.144440
3410.240000, 80.103110
3411.040000, 80.057680
3411.840000, 80.010850
3412.650000, 79.963310
3413.450000, 79.915480
3414.250000, 79.864750
3415.060000, 79.810620
3415.860000, 79.751290
3416.670000, 79.688360
3417.470000, 79.623730
3418.270000, 79.557490
3419.080000, 79.486760
3419.880000, 79.412830
3420.680000, 79.336700
3421.490000, 79.259070
3422.290000, 79.181140
3423.090000, 79.102410
3423.900000, 79.022570
3424.700000, 78.940340
3425.500000, 78.856410
3426.310000, 78.770880
3427.110000, 78.682750
3427.910000, 78.592120
3428.720000, 78.499490
3429.520000, 78.404550
3430.330000, 78.304820
3431.130000, 78.202890
3431.930000, 78.099060
3432.740000, 77.994030
3433.540000, 77.887500
3434.340000, 77.779470
3435.150000, 77.669140
3435.950000, 77.555100
3436.750000, 77.438270
3437.560000, 77.318740
3438.360000, 77.195210
3439.160000, 77.070580
3439.970000, 76.945550
3440.770000, 76.820720
3441.580000, 76.695080
3442.380000, 76.567750
3443.180000, 76.438120
3443.990000, 76.303590
3444.790000, 76.167160
3445.590000, 76.029330
3446.400000, 75.891200
3447.200000, 75.753760
3448.000000, 75.616530
3448.810000, 75.479000
3449.610000, 75.339770
3450.410000, 75.199540
3451.220000, 75.058310
3452.020000, 74.915480
3452.820000, 74.771240
3453.630000, 74.625310
3454.430000, 74.476680
3455.240000, 74.326550
3456.040000, 74.175620
3456.840000, 74.024290
3457.650000, 73.872360
3458.450000, 73.719020
3459.250000, 73.563890
3460.060000, 73.404760
3460.860000, 73.245330
3461.660000, 73.086000
3462.470000, 72.929870
3463.270000, 72.774640
3464.070000, 72.619310
3464.880000, 72.462270
3465.680000, 72.303840
3466.480000, 72.144910
3467.290000, 71.985780
3468.090000, 71.826150
3468.900000, 71.666120
3469.700000, 71.505690
3470.500000, 71.343450
3471.310000, 71.179420
3472.110000, 71.013790
3472.910000, 70.845960
3473.720000, 70.678830
3474.520000, 70.513000
3475.320000, 70.350470
3476.130000, 70.191830
3476.930000, 70.034700
3477.730000, 69.878570
3478.540000, 69.719340
3479.340000, 69.557410
3480.150000, 69.392180
3480.950000, 69.222850
3481.750000, 69.053210
3482.560000, 68.883280
3483.360000, 68.715550
3484.160000, 68.548920
3484.970000, 68.382990
3485.770000, 68.217260
3486.570000, 68.052030
3487.380000, 67.887490
3488.180000, 67.724760
3488.980000, 67.563730
3489.790000, 67.403000
3490.590000, 67.241770
3491.390000, 67.078040
3492.200000, 66.913510
3493.000000, 66.748170
3493.810000, 66.585240
3494.610000, 66.424910
3495.410000, 66.267380
3496.220000, 66.113650
3497.020000, 65.960220
3497.820000, 65.806890
3498.630000, 65.652460
3499.430000, 65.498020
3500.230000, 65.343590
3501.040000, 65.189160
3501.840000, 65.034730
3502.640000, 64.880500
3503.450000, 64.727570
3504.250000, 64.576240
3505.050000, 64.425800
3505.860000, 64.275870
3506.660000, 64.125840
3507.470000, 63.976510
3508.270000, 63.828780
3509.070000, 63.684150
3509.880000, 63.541320
3510.680000, 63.400380
3511.480000, 63.259550
3512.290000, 63.118120
3513.090000, 62.975590
3513.890000, 62.833360
3514.700000, 62.692530
3515.500000, 62.554000
3516.300000, 62.417660
3517.110000, 62.281030
3517.910000, 62.143600
3518.720000, 62.006170
3519.520000, 61.870640
3520.320000, 61.737510
3521.130000, 61.608680
3521.930000, 61.480340
3522.730000, 61.352210
3523.540000, 61.223880
3524.340000, 61.096650
3525.140000, 60.970320
3525.950000, 60.846690
3526.750000, 60.724060
3527.550000, 60.602220
3528.360000, 60.481490
3529.160000, 60.361560
3529.960000, 60.242430
3530.770000, 60.125000
3531.570000, 60.008270
3532.380000, 59.892340
3533.180000, 59.778710
3533.980000, 59.667070
3534.790000, 59.557340
3535.590000, 59.450310
3536.390000, 59.343480
3537.200000, 59.236950
3538.000000, 59.130720
3538.800000, 59.025890
3539.610000, 58.922450
3540.410000, 58.822220
3541.210000, 58.723490
3542.020000, 58.625860
3542.820000, 58.529930
3543.630000, 58.435400
3544.430000, 58.342070
3545.230000, 58.250630
3546.040000, 58.159600
3546.840000, 58.068870
3547.640000, 57.979340
3548.450000, 57.891410
3549.250000, 57.805080
3550.050000, 57.723050
3550.860000, 57.642810
3551.660000, 57.564580
3552.460000, 57.487250
3553.270000, 57.409220
3554.070000, 57.330190
3554.870000, 57.251460
3555.680000, 57.175030
3556.480000, 57.101790
3557.290000, 57.035060
3558.090000, 56.970030
3558.890000, 56.906700
3559.700000, 56.841370
3560.500000, 56.775140
3561.300000, 56.707710
3562.110000, 56.642180
3562.910000, 56.578640
3563.710000, 56.518510
3564.520000, 56.461380
3565.320000, 56.405550
3566.120000, 56.351220
3566.930000, 56.298390
3567.730000, 56.246360
3568.530000, 56.196020
3569.340000, 56.147490
3570.140000, 56.100360
3570.950000, 56.056930
3571.750000, 56.015600
3572.550000, 55.975670
3573.360000, 55.936440
3574.160000, 55.896900
3574.960000, 55.857070
3575.770000, 55.817140
3576.570000, 55.777310
3577.370000, 55.737680
3578.180000, 55.698950
3578.980000, 55.661520
3579.780000, 55.626180
3580.590000, 55.595550
3581.390000, 55.567120
3582.200000, 55.541590
3583.000000, 55.516860
3583.800000, 55.492330
3584.610000, 55.467900
3585.410000, 55.443660
3586.210000, 55.419530
3587.020000, 55.395600
3587.820000, 55.372370
3588.620000, 55.349840
3589.430000, 55.330410
3590.230000, 55.313680
3591.030000, 55.299340
3591.840000, 55.288310
3592.640000, 55.277980
3593.440000, 55.268550
3594.250000, 55.260520
3595.050000, 55.253190
3595.860000, 55.246760
3596.660000, 55.239630
3597.460000, 55.231990
3598.270000, 55.223560
3599.070000, 55.216330
3599.870000, 55.210300
3600.680000, 55.207370
3601.480000, 55.205640
3602.280000, 55.204810
3603.090000, 55.203970
3603.890000, 55.203740
3604.690000, 55.204110
3605.500000, 55.206480
3606.300000, 55.209850
3607.100000, 55.214420
3607.910000, 55.219290
3608.710000, 55.223850
3609.520000, 55.227420
3610.320000, 55.230790
3611.120000, 55.234260
3611.930000, 55.240830
3612.730000, 55.249800
3613.530000, 55.261070
3614.340000, 55.274130
3615.140000, 55.287000
3615.940000, 55.299570
3616.750000, 55.311740
3617.550000, 55.324010
3618.350000, 55.336880
3619.160000, 55.350250
3619.960000, 55.364010
3620.770000, 55.377980
3621.570000, 55.391750
3622.370000, 55.405420
3623.180000, 55.419090
3623.980000, 55.433360
3624.780000, 55.448630
3625.590000, 55.465790
3626.390000, 55.483660
3627.190000, 55.502830
3628.000000, 55.521700
3628.800000, 55.540270
3629.600000, 55.557840
3630.410000, 55.575410
3631.210000, 55.593080
3632.010000, 55.612240
3632.820000, 55.632210
3633.620000, 55.653280
3634.430000, 55.674050
3635.230000, 55.694420
3636.030000, 55.712990
3636.840000, 55.731260
3637.640000, 55.749320
3638.440000, 55.769290
3639.250000, 55.789460
3640.050000, 55.810130
3640.850000, 55.830000
3641.660000, 55.849870
3642.460000, 55.869940
3643.260000, 55.890500
3644.070000, 55.911370
3644.870000, 55.932040
3645.670000, 55.952510
3646.480000, 55.972980
3647.280000, 55.993950
3648.090000, 56.015220
3648.890000, 56.036980
3649.690000, 56.059350
3650.500000, 56.082020
3651.300000, 56.105690
3652.100000, 56.129760
3652.910000, 56.154130
3653.710000, 56.176900
3654.510000, 56.198660
3655.320000, 56.218030
3656.120000, 56.236600
3656.920000, 56.254870
3657.730000, 56.273940
3658.530000, 56.293410
3659.340000, 56.313380
3660.140000, 56.333950
3660.940000, 56.354710
3661.750000, 56.375880
3662.550000, 56.396050
3663.350000, 56.415720
3664.160000, 56.433790
3664.960000, 56.451960
3665.760000, 56.470430
3666.570000, 56.489490
3667.370000, 56.508660
3668.170000, 56.527730
3668.980000, 56.546900
3669.780000, 56.566170
3670.580000, 56.586040
3671.390000, 56.605710
3672.190000, 56.624670
3673.000000, 56.642240
3673.800000, 56.659110
3674.600000, 56.675480
3675.410000, 56.692150
3676.210000, 56.709020
3677.010000, 56.725490
3677.820000, 56.741950
3678.620000, 56.757920
3679.420000, 56.773790
3680.230000, 56.789660
3681.030000, 56.804930
3681.830000, 56.820100
3682.640000, 56.834970
3683.440000, 56.850430
3684.250000, 56.866200
3685.050000, 56.882870
3685.850000, 56.899640
3686.660000, 56.916410
3687.460000, 56.932980
3688.260000, 56.949450
3689.070000, 56.965910
3689.870000, 56.982680
3690.670000, 56.999650
3691.480000, 57.016720
3692.280000, 57.033290
3693.080000, 57.048460
3693.890000, 57.061130
3694.690000, 57.072500
3695.490000, 57.081960
3696.300000, 57.092330
3697.100000, 57.104200
3697.910000, 57.118770
3698.710000, 57.134340
3699.510000, 57.151210
3700.320000, 57.167480
3701.120000, 57.183240
3701.920000, 57.197710
3702.730000, 57.211680
3703.530000, 57.224450
3704.330000, 57.236620
3705.140000, 57.248090
3705.940000, 57.258860
3706.740000, 57.269720
3707.550000, 57.280990
3708.350000, 57.293260
3709.150000, 57.306130
3709.960000, 57.321100
3710.760000, 57.336370
3711.570000, 57.351940
3712.370000, 57.365800
3713.170000, 57.378770
3713.980000, 57.388340
3714.780000, 57.397710
3715.580000, 57.406580
3716.390000, 57.416750
3717.190000, 57.427620
3717.990000, 57.439580
3718.800000, 57.451150
3719.600000, 57.462220
3720.400000, 57.472890
3721.210000, 57.483460
3722.010000, 57.494730
3722.820000, 57.506300
3723.620000, 57.518460
3724.420000, 57.530530
3725.230000, 57.542400
3726.030000, 57.553270
3726.830000, 57.563940
3727.640000, 57.574110
3728.440000, 57.583380
3729.240000, 57.592150
3730.050000, 57.599210
3730.850000, 57.605880
3731.650000, 57.611850
3732.460000, 57.618020
3733.260000, 57.624390
3734.060000, 57.631560
3734.870000, 57.638930
3735.670000, 57.646690
3736.480000, 57.654960
3737.280000, 57.663330
3738.080000, 57.672100
3738.890000, 57.680970
3739.690000, 57.690040
3740.490000, 57.698610
3741.300000, 57.707070
3742.100000, 57.713840
3742.900000, 57.719910
3743.710000, 57.724680
3744.510000, 57.728550
3745.310000, 57.731620
3746.120000, 57.733890
3746.920000, 57.736050
3747.720000, 57.738320
3748.530000, 57.741090
3749.330000, 57.744460
3750.140000, 57.748430
3750.940000, 57.752400
3751.740000, 57.755970
3752.550000, 57.758430
3753.350000, 57.760100
3754.150000, 57.759970
3754.960000, 57.759340
3755.760000, 57.757710
3756.560000, 57.755880
3757.370000, 57.753850
3758.170000, 57.751220
3758.970000, 57.748180
3759.780000, 57.744650
3760.580000, 57.741420
3761.390000, 57.738790
3762.190000, 57.736860
3762.990000, 57.735330
3763.800000, 57.732700
3764.600000, 57.729060
3765.400000, 57.722930
3766.210000, 57.714900
3767.010000, 57.705270
3767.810000, 57.694740
3768.620000, 57.684210
3769.420000, 57.674680
3770.220000, 57.665240
3771.030000, 57.655810
3771.830000, 57.644680
3772.630000, 57.632950
3773.440000, 57.618420
3774.240000, 57.603190
3775.050000, 57.586360
3775.850000, 57.568420
3776.650000, 57.549790
3777.460000, 57.529960
3778.260000, 57.510030
3779.060000, 57.490100
3779.870000, 57.470670
3780.670000, 57.451840
3781.470000, 57.432600
3782.280000, 57.413270
3783.080000, 57.390340
3783.880000, 57.365910
3784.690000, 57.338080
3785.490000, 57.308950
3786.300000, 57.278720
3787.100000, 57.249280
3787.900000, 57.220150
3788.710000, 57.191820
3789.510000, 57.162990
3790.310000, 57.133260
3791.120000, 57.101830
3791.920000, 57.069500
3792.720000, 57.034970
3793.530000, 56.999730
3794.330000, 56.962800
3795.130000, 56.924070
3795.940000, 56.883740
3796.740000, 56.841810
3797.540000, 56.799480
3798.350000, 56.757450
3799.150000, 56.715510
3799.960000, 56.673880
3800.760000, 56.630850
3801.560000, 56.586920
3802.370000, 56.539890
3803.170000, 56.492060
3803.970000, 56.441930
3804.780000, 56.391190
3805.580000, 56.339660
3806.380000, 56.287630
3807.190000, 56.235400
3807.990000, 56.182600
3808.790000, 56.129500
3809.600000, 56.075000
3810.400000, 56.019400
3811.200000, 55.962300
3812.010000, 55.903700
3812.810000, 55.844500
3813.620000, 55.783800
3814.420000, 55.722600
3815.220000, 55.659700
3816.030000, 55.595700
3816.830000, 55.530500
3817.630000, 55.464200
3818.440000, 55.397600
3819.240000, 55.330000
3820.040000, 55.262100
3820.850000, 55.193100
3821.650000, 55.123200
3822.450000, 55.052400
3823.260000, 54.980400
3824.060000, 54.908100
3824.870000, 54.835700
3825.670000, 54.763500
3826.470000, 54.691800
3827.280000, 54.620200
3828.080000, 54.548600
3828.880000, 54.475500
3829.690000, 54.401800
3830.490000, 54.324600
3831.290000, 54.246600
3832.100000, 54.165800
3832.900000, 54.084400
3833.700000, 54.002300
3834.510000, 53.920400
3835.310000, 53.838800
3836.110000, 53.757800
3836.920000, 53.676900
3837.720000, 53.595800
3838.530000, 53.514100
3839.330000, 53.431400
3840.130000, 53.347600
3840.940000, 53.262900
3841.740000, 53.176400
3842.540000, 53.089500
3843.350000, 53.001700
3844.150000, 52.914100
3844.950000, 52.827400
3845.760000, 52.741400
3846.560000, 52.656100
3847.360000, 52.570300
3848.170000, 52.484200
3848.970000, 52.396200
3849.770000, 52.307900
3850.580000, 52.219000
3851.380000, 52.130100
3852.190000, 52.041200
3852.990000, 51.951800
3853.790000, 51.862100
3854.600000, 51.771100
3855.400000, 51.679900
3856.200000, 51.588500
3857.010000, 51.497300
3857.810000, 51.407100
3858.610000, 51.317200
3859.420000, 51.227700
3860.220000, 51.137800
3861.020000, 51.047700
3861.830000, 50.957000
3862.630000, 50.866400
3863.440000, 50.776600
3864.240000, 50.687100
3865.040000, 50.598000
3865.850000, 50.508400
3866.650000, 50.418200
3867.450000, 50.327400
3868.260000, 50.236300
3869.060000, 50.145600
3869.860000, 50.055000
3870.670000, 49.964800
3871.470000, 49.874400
3872.270000, 49.783900
3873.080000, 49.693300
3873.880000, 49.602800
3874.680000, 49.513300
3875.490000, 49.424100
3876.290000, 49.336500
3877.100000, 49.249100
3877.900000, 49.162200
3878.700000, 49.075100
3879.510000, 48.987800
3880.310000, 48.900500
3881.110000, 48.813000
3881.920000, 48.726000
3882.720000, 48.639100
3883.520000, 48.553300
3884.330000, 48.467800
3885.130000, 48.383600
3885.930000, 48.299700
3886.740000, 48.216300
3887.540000, 48.132700
3888.350000, 48.048800
3889.150000, 47.964500
3889.950000, 47.879900
3890.760000, 47.795700
3891.560000, 47.711600
3892.360000, 47.629000
3893.170000, 47.546800
3893.970000, 47.465500
3894.770000, 47.384200
3895.580000, 47.302800
3896.380000, 47.221400
3897.180000, 47.140100
3897.990000, 47.060800
3898.790000, 46.982100
3899.590000, 46.907000
3900.400000, 46.832300
3901.200000, 46.759500
3902.010000, 46.686500
3902.810000, 46.613200
3903.610000, 46.539700
3904.420000, 46.465800
3905.220000, 46.392300
3906.020000, 46.318900
3906.830000, 46.245400
3907.630000, 46.171800
3908.430000, 46.097600
3909.240000, 46.023600
3910.040000, 45.950600
3910.840000, 45.878400
3911.650000, 45.808100
3912.450000, 45.738700
3913.250000, 45.670500
3914.060000, 45.602900
3914.860000, 45.535700
3915.670000, 45.469400
3916.470000, 45.403300
3917.270000, 45.338200
3918.080000, 45.273300
3918.880000, 45.208300
3919.680000, 45.143300
3920.490000, 45.077800
3921.290000, 45.012700
3922.090000, 44.948300
3922.900000, 44.885500
3923.700000, 44.824000
3924.500000, 44.763600
3925.310000, 44.703800
3926.110000, 44.643600
3926.920000, 44.583400
3927.720000, 44.523300
3928.520000, 44.463600
3929.330000, 44.405500
3930.130000, 44.348000
3930.930000, 44.291700
3931.740000, 44.235800
3932.540000, 44.180300
3933.340000, 44.125400
3934.150000, 44.070900
3934.950000, 44.017100
3935.750000, 43.963500
3936.560000, 43.910000
3937.360000, 43.856600
3938.160000, 43.803300
3938.970000, 43.750300
3939.770000, 43.698600
3940.580000, 43.647500
3941.380000, 43.597800
3942.180000, 43.548600
3942.990000, 43.500100
3943.790000, 43.451700
3944.590000, 43.403500
3945.400000, 43.355900
3946.200000, 43.308500
3947.000000, 43.262600
3947.810000, 43.217000
3948.610000, 43.173300
3949.410000, 43.129600
3950.220000, 43.086200
3951.020000, 43.042600
3951.820000, 42.997800
3952.630000, 42.952800
3953.430000, 42.907300
3954.240000, 42.862600
3955.040000, 42.819000
3955.840000, 42.777600
3956.650000, 42.737500
3957.450000, 42.698800
3958.250000, 42.660600
3959.060000, 42.621600
3959.860000, 42.582400
3960.660000, 42.542200
3961.470000, 42.502100
3962.270000, 42.463000
3963.070000, 42.424200
3963.880000, 42.386400
3964.680000, 42.348700
3965.490000, 42.311000
3966.290000, 42.273700
3967.090000, 42.236800
3967.900000, 42.201000
3968.700000, 42.166100
3969.500000, 42.132000
3970.310000, 42.098200
3971.110000, 42.064000
3971.910000, 42.029600
3972.720000, 41.995200
3973.520000, 41.960800
3974.320000, 41.928200
3975.130000, 41.896000
3975.930000, 41.865900
3976.730000, 41.836000
3977.540000, 41.806900
3978.340000, 41.777400
3979.150000, 41.747000
3979.950000, 41.715800
3980.750000, 41.683300
3981.560000, 41.650600
3982.360000, 41.617800
3983.160000, 41.586200
3983.970000, 41.555400
3984.770000, 41.526300
3985.570000, 41.498000
3986.380000, 41.470800
3987.180000, 41.443900
3987.980000, 41.417300
3988.790000, 41.390700
3989.590000, 41.363300
3990.390000, 41.335900
3991.200000, 41.307600
3992.000000, 41.279200
3992.810000, 41.251300
3993.610000, 41.223700
3994.410000, 41.197500
3995.220000, 41.171700
3996.020000, 41.146600
3996.820000, 41.121400
3997.630000, 41.096100
3998.430000, 41.070300
3999.230000, 41.044200
4000.040000, 41.017700
4000.840000, 40.990800
4001.640000, 40.964300
4002.450000, 40.938000
4003.250000, 40.913200
4004.060000, 40.888900
4004.860000, 40.865700
4005.660000, 40.842800
4006.470000, 40.819300
4007.270000, 40.795800
4008.070000, 40.771400
4008.880000, 40.746900
4009.680000, 40.722800
4010.480000, 40.698800
4011.290000, 40.675700
4012.090000, 40.652500
4012.890000, 40.629400
4013.700000, 40.606200
4014.500000, 40.582200
4015.300000, 40.558200
4016.110000, 40.534200
4016.910000, 40.510700
4017.720000, 40.488100
4018.520000, 40.466000
4019.320000, 40.444600
4020.130000, 40.423000
4020.930000, 40.401100
4021.730000, 40.378600
4022.540000, 40.355700
4023.340000, 40.332600
4024.140000, 40.309400
4024.950000, 40.287000
4025.750000, 40.265100
4026.550000, 40.244500
4027.360000, 40.224400
4028.160000, 40.205000
4028.970000, 40.185800
4029.770000, 40.165500
4030.570000, 40.145000
4031.380000, 40.122900
4032.180000, 40.100600
4032.980000, 40.077900
4033.790000, 40.055200
4034.590000, 40.033900
4035.390000, 40.012700
4036.200000, 39.993000
4037.000000, 39.973400
4037.800000, 39.954200
4038.610000, 39.934800
4039.410000, 39.914800
4040.210000, 39.894700
4041.020000, 39.874500
4041.820000, 39.854400
4042.630000, 39.835300
4043.430000, 39.816200
4044.230000, 39.797300
4045.040000, 39.777900
4045.840000, 39.757100
4046.640000, 39.736000
4047.450000, 39.714300
4048.250000, 39.693100
4049.050000, 39.673200
4049.860000, 39.654000
4050.660000, 39.636000
4051.460000, 39.617700
4052.270000, 39.598900
4053.070000, 39.579300
4053.870000, 39.558400
4054.680000, 39.537200
4055.480000, 39.515600
4056.290000, 39.494500
4057.090000, 39.474100
4057.890000, 39.454300
4058.700000, 39.435100
4059.500000, 39.416200
4060.300000, 39.397400
4061.110000, 39.378800
4061.910000, 39.360300
4062.710000, 39.341800
4063.520000, 39.323400
4064.320000, 39.304700
4065.120000, 39.285800
4065.930000, 39.266700
4066.730000, 39.247600
4067.540000, 39.228600
4068.340000, 39.209700
4069.140000, 39.190800
4069.950000, 39.171900
4070.750000, 39.153000
4071.550000, 39.134000
4072.360000, 39.115200
4073.160000, 39.096500
4073.960000, 39.078700
4074.770000, 39.061300
4075.570000, 39.045000
4076.370000, 39.029200
4077.180000, 39.013500
4077.980000, 38.997800
4078.780000, 38.981100
4079.590000, 38.964000
4080.390000, 38.946000
4081.200000, 38.927700
4082.000000, 38.909600
4082.800000, 38.891600
4083.610000, 38.874800
4084.410000, 38.858400
4085.210000, 38.843000
4086.020000, 38.828000
4086.820000, 38.812600
4087.620000, 38.797000
4088.430000, 38.780200
4089.230000, 38.763000
4090.030000, 38.745700
4090.840000, 38.728400
4091.640000, 38.712100
4092.440000, 38.696300
4093.250000, 38.681400
4094.050000, 38.666900
4094.860000, 38.652700
4095.660000, 38.638700
4096.460000, 38.624300
4097.270000, 38.609700
4098.070000, 38.594200
4098.870000, 38.578100
4099.680000, 38.560900
4100.480000, 38.543100
4101.280000, 38.525100
4102.090000, 38.507000
4102.890000, 38.490200
4103.690000, 38.474200
4104.500000, 38.459700
4105.300000, 38.446300
4106.110000, 38.433500
4106.910000, 38.421200
4107.710000, 38.408900
4108.520000, 38.396600
4109.320000, 38.384300
4110.120000, 38.372000
4110.930000, 38.359700
4111.730000, 38.347400
4112.530000, 38.335000
4113.340000, 38.322400
4114.140000, 38.309600
4114.940000, 38.296500
4115.750000, 38.283300
4116.550000, 38.269600
4117.350000, 38.256000
4118.160000, 38.242300
4118.960000, 38.229000
4119.770000, 38.216600
4120.570000, 38.204600
4121.370000, 38.193600
4122.180000, 38.182600
4122.980000, 38.171500
4123.780000, 38.160200
4124.590000, 38.148400
4125.390000, 38.136700
4126.190000, 38.125500
4127.000000, 38.114300
4127.800000, 38.103700
4128.600000, 38.093200
4129.410000, 38.082600
4130.210000, 38.072000
4131.020000, 38.061200
4131.820000, 38.050500
4132.620000, 38.040100
4133.430000, 38.029700
4134.230000, 38.019000
4135.030000, 38.008400
4135.840000, 37.996900
4136.640000, 37.985400
4137.440000, 37.973700
4138.250000, 37.962000
4139.050000, 37.951500
4139.850000, 37.941400
4140.660000, 37.932700
4141.460000, 37.924600
4142.260000, 37.916800
4143.070000, 37.909300
4143.870000, 37.900900
4144.680000, 37.891900
4145.480000, 37.882200
4146.280000, 37.871900
4147.090000, 37.862000
4147.890000, 37.852500
4148.690000, 37.843600
4149.500000, 37.835700
4150.300000, 37.827800
4151.100000, 37.819800
4151.910000, 37.811400
4152.710000, 37.801600
4153.510000, 37.791600
4154.320000, 37.780700
4155.120000, 37.769900
4155.920000, 37.759400
4156.730000, 37.748900
4157.530000, 37.738900
4158.340000, 37.728900
4159.140000, 37.718500
4159.940000, 37.708100
4160.750000, 37.697700
4161.550000, 37.687400
4162.350000, 37.677300
4163.160000, 37.667300
4163.960000, 37.657000
4164.760000, 37.646700
4165.570000, 37.636400
4166.370000, 37.626200
4167.170000, 37.616500
4167.980000, 37.607300
4168.780000, 37.597900
4169.590000, 37.588500
4170.390000, 37.578300
4171.190000, 37.567100
4172.000000, 37.555500
4172.800000, 37.543000
4173.600000, 37.530500
4174.410000, 37.517800
4175.210000, 37.505000
4176.010000, 37.491900
4176.820000, 37.478700
4177.620000, 37.465000
4178.420000, 37.451200
4179.230000, 37.437000
4180.030000, 37.422700
4180.830000, 37.408400
4181.640000, 37.394000
4182.440000, 37.380200
4183.250000, 37.366500
4184.050000, 37.353800
4184.850000, 37.341500
4185.660000, 37.330400
4186.460000, 37.320200
4187.260000, 37.311400
4188.070000, 37.304300
4188.870000, 37.299200
4189.670000, 37.297700
4190.480000, 37.298500
4191.280000, 37.306500
4192.080000, 37.316100
4192.890000, 37.335800
4193.690000, 37.355900
4194.490000, 37.387100
4195.300000, 37.418200
4196.100000, 37.458300
4196.910000, 37.499000
4197.710000, 37.545300
4198.510000, 37.592900
4199.320000, 37.643000
4200.120000, 37.694200
4200.920000, 37.746500
4201.730000, 37.799600
4202.530000, 37.853500
4203.330000, 37.908600
4204.140000, 37.964800
4204.940000, 38.023300
4205.740000, 38.083100
4206.550000, 38.147600
4207.350000, 38.212800
4208.160000, 38.284700
4208.960000, 38.356600
4209.760000, 38.434600
4210.570000, 38.512800
4211.370000, 38.594600
4212.170000, 38.677000
4212.980000, 38.762100
4213.780000, 38.848100
4214.580000, 38.936100
4215.390000, 39.025500
4216.190000, 39.115400
4216.990000, 39.206100
4217.800000, 39.296800
4218.600000, 39.387400
4219.400000, 39.477800
4220.210000, 39.567700
4221.010000, 39.657300
4221.820000, 39.742300
4222.620000, 39.827200
4223.420000, 39.901100
4224.230000, 39.973800
4225.030000, 40.033400
4225.830000, 40.088900
4226.640000, 40.131100
4227.440000, 40.165500
4228.240000, 40.187100
4229.050000, 40.195200
4229.850000, 40.193400
4230.650000, 40.172400
4231.460000, 40.146800
4232.260000, 40.101600
4233.060000, 40.055900
4233.870000, 39.996300
4234.670000, 39.936800
4235.480000, 39.859600
4236.280000, 39.780100
4237.080000, 39.673000
4237.890000, 39.555900
4238.690000, 39.421100
4239.490000, 39.273400
4240.300000, 39.118000
4241.100000, 38.951900
4241.900000, 38.774800
4242.710000, 38.566900
4243.510000, 38.352800
4244.310000, 38.086700
4245.120000, 37.820700
4245.920000, 37.532300
4246.730000, 37.242700
4247.530000, 36.960000
4248.330000, 36.679400
4249.140000, 36.395400
4249.940000, 36.109200
4250.740000, 35.813600
4251.550000, 35.506300
4252.350000, 35.197000
4253.150000, 34.882600
4253.960000, 34.571900
4254.760000, 34.290800
4255.560000, 34.009800
4256.370000, 33.807000
4257.170000, 33.609500
4257.970000, 33.492900
4258.780000, 33.401200
4259.580000, 33.358600
4260.390000, 33.350300
4261.190000, 33.350700
4261.990000, 33.363400
4262.800000, 33.366500
4263.600000, 33.337700
4264.400000, 33.306100
4265.210000, 33.219000
4266.010000, 33.131900
4266.810000, 33.007400
4267.620000, 32.877200
4268.420000, 32.724300
4269.220000, 32.560700
4270.030000, 32.379700
4270.830000, 32.180900
4271.640000, 31.973500
4272.440000, 31.746800
4273.240000, 31.520500
4274.050000, 31.296200
4274.850000, 31.071900
4275.650000, 30.886000
4276.460000, 30.703200
4277.260000, 30.553700
4278.060000, 30.416400
4278.870000, 30.280500
4279.670000, 30.145900
4280.470000, 30.002600
4281.280000, 29.842200
4282.080000, 29.680500
4282.880000, 29.509600
4283.690000, 29.338900
4284.490000, 29.168300
4285.300000, 28.997800
4286.100000, 28.823400
4286.900000, 28.647700
4287.710000, 28.468600
4288.510000, 28.286700
4289.310000, 28.103600
4290.120000, 27.918200
4290.920000, 27.732100
4291.720000, 27.541100
4292.530000, 27.350100
4293.330000, 27.150600
4294.130000, 26.950300
4294.940000, 26.744500
4295.740000, 26.536400
4296.540000, 26.327300
4297.350000, 26.117400
4298.150000, 25.908900
4298.960000, 25.704400
4299.760000, 25.500300
4300.560000, 25.303300
4301.370000, 25.106500
4302.170000, 24.911800
4302.970000, 24.717700
4303.780000, 24.523100
4304.580000, 24.328200
4305.380000, 24.132400
4306.190000, 23.935100
4306.990000, 23.737000
4307.790000, 23.533400
4308.600000, 23.330000
4309.400000, 23.121700
4310.210000, 22.913100
4311.010000, 22.707200
4311.810000, 22.502500
4312.620000, 22.302700
4313.420000, 22.108500
4314.220000, 21.916800
4315.030000, 21.732400
4315.830000, 21.548200
4316.630000, 21.369400
4317.440000, 21.190700
4318.240000, 21.016600
4319.040000, 20.844000
4319.850000, 20.675500
4320.650000, 20.510700
4321.450000, 20.347600
4322.260000, 20.188300
4323.060000, 20.029200
4323.870000, 19.873000
4324.670000, 19.716900
4325.470000, 19.561800
4326.280000, 19.407000
4327.080000, 19.252400
4327.880000, 19.097800
4328.690000, 18.943400
4329.490000, 18.789300
4330.290000, 18.635200
4331.100000, 18.481700
4331.900000, 18.328200
4332.700000, 18.176000
4333.510000, 18.024100
4334.310000, 17.873200
4335.110000, 17.723200
4335.920000, 17.574100
4336.720000, 17.427000
4337.530000, 17.280400
4338.330000, 17.140400
4339.130000, 17.000500
4339.940000, 16.868200
4340.740000, 16.738100
4341.540000, 16.612000
4342.350000, 16.489500
4343.150000, 16.367900
4343.950000, 16.248600
4344.760000, 16.129400
4345.560000, 16.010300
4346.360000, 15.891100
4347.170000, 15.772100
4347.970000, 15.653100
4348.780000, 15.536100
4349.580000, 15.421400
4350.380000, 15.308000
4351.190000, 15.199500
4351.990000, 15.091100
4352.790000, 14.985700
4353.600000, 14.880700
4354.400000, 14.776800
4355.200000, 14.673600
4356.010000, 14.571700
4356.810000, 14.472100
4357.610000, 14.372800
4358.420000, 14.276900
4359.220000, 14.181100
4360.020000, 14.086800
4360.830000, 13.992800
4361.630000, 13.899500
4362.440000, 13.806900
4363.240000, 13.714800
4364.040000, 13.624100
4364.850000, 13.533600
4365.650000, 13.446200
4366.450000, 13.359100
4367.260000, 13.275000
4368.060000, 13.192400
4368.860000, 13.111300
4369.670000, 13.032200
4370.470000, 12.953400
4371.270000, 12.876200
4372.080000, 12.799100
4372.880000, 12.723200
4373.690000, 12.647700
4374.490000, 12.573600
4375.290000, 12.500900
4376.100000, 12.429300
4376.900000, 12.361400
4377.700000, 12.293600
4378.510000, 12.231200
4379.310000, 12.169300
4380.110000, 12.110100
4380.920000, 12.052600
4381.720000, 11.995700
4382.520000, 11.940300
4383.330000, 11.884900
4384.130000, 11.830700
4384.930000, 11.776600
4385.740000, 11.723900
4386.540000, 11.671800
4387.350000, 11.620800
4388.150000, 11.571500
4388.950000, 11.522400
4389.760000, 11.475800
4390.560000, 11.429300
4391.360000, 11.384600
4392.170000, 11.340400
4392.970000, 11.297400
4393.770000, 11.255600
4394.580000, 11.214000
4395.380000, 11.173900
4396.180000, 11.133800
4396.990000, 11.094600
4397.790000, 11.055600
4398.590000, 11.017500
4399.400000, 10.980300
4400.200000, 10.943600
4401.010000, 10.909300
4401.810000, 10.874900
4402.610000, 10.842600
4403.420000, 10.810600
4404.220000, 10.779300
4405.020000, 10.748700
4405.830000, 10.718400
4406.630000, 10.689200
4407.430000, 10.659900
4408.240000, 10.632800
4409.040000, 10.605900
4409.840000, 10.580600
4410.650000, 10.556600
4411.450000, 10.533100
4412.260000, 10.511400
4413.060000, 10.489800
4413.860000, 10.469600
4414.670000, 10.449700
4415.470000, 10.430600
4416.270000, 10.412400
4417.080000, 10.394600
4417.880000, 10.378400
4418.680000, 10.362200
4419.490000, 10.347800
4420.290000, 10.333700
4421.090000, 10.320300
4421.900000, 10.307700
4422.700000, 10.295300
4423.500000, 10.283600
4424.310000, 10.271900
4425.110000, 10.261400
4425.920000, 10.251200
4426.720000, 10.242100
4427.520000, 10.234400
4428.330000, 10.227000
4429.130000, 10.221500
4429.930000, 10.216100
4430.740000, 10.212000
4431.540000, 10.208400
4432.340000, 10.205700
4433.150000, 10.204400
4433.950000, 10.203100
4434.750000, 10.204100
4435.560000, 10.205100
4436.360000, 10.206900
4437.160000, 10.209100
4437.970000, 10.211700
4438.770000, 10.215000
4439.580000, 10.218300
4440.380000, 10.223100
4441.180000, 10.228100
4441.990000, 10.233800
4442.790000, 10.240200
4443.590000, 10.246900
4444.400000, 10.254500
4445.200000, 10.262100
4446.000000, 10.271500
4446.810000, 10.281200
4447.610000, 10.292000
4448.410000, 10.304000
4449.220000, 10.316100
4450.020000, 10.329300
4450.830000, 10.342500
4451.630000, 10.356100
4452.430000, 10.369800
4453.240000, 10.383900
4454.040000, 10.398900
4454.840000, 10.413800
4455.650000, 10.431400
4456.450000, 10.448900
4457.250000, 10.468100
4458.060000, 10.488300
4458.860000, 10.508700
4459.660000, 10.530300
4460.470000, 10.551800
4461.270000, 10.574100
4462.070000, 10.596600
4462.880000, 10.619800
4463.680000, 10.644100
4464.490000, 10.668400
4465.290000, 10.694600
4466.090000, 10.720700
4466.900000, 10.747200
4467.700000, 10.773900
4468.500000, 10.800500
4469.310000, 10.827200
4470.110000, 10.853800
4470.910000, 10.881600
4471.720000, 10.909500
4472.520000, 10.938600
4473.320000, 10.969100
4474.130000, 10.999600
4474.930000, 11.031800
4475.730000, 11.064100
4476.540000, 11.096600
4477.340000, 11.129400
4478.150000, 11.162300
4478.950000, 11.195600
4479.750000, 11.229000
4480.560000, 11.263300
4481.360000, 11.297900
4482.160000, 11.332900
4482.970000, 11.368700
4483.770000, 11.404500
4484.570000, 11.441400
4485.380000, 11.478400
4486.180000, 11.516200
4486.980000, 11.554400
4487.790000, 11.592800
4488.590000, 11.632000
4489.400000, 11.671200
4490.200000, 11.710600
4491.000000, 11.750000
4491.810000, 11.789400
4492.610000, 11.828800
4493.410000, 11.868100
4494.220000, 11.907500
4495.020000, 11.947000
4495.820000, 11.986900
4496.630000, 12.027400
4497.430000, 12.067900
4498.230000, 12.109700
4499.040000, 12.151400
4499.840000, 12.193500
4500.640000, 12.235800
4501.450000, 12.278200
4502.250000, 12.320700
4503.060000, 12.363200
4503.860000, 12.405800
4504.660000, 12.448500
4505.470000, 12.491300
4506.270000, 12.534600
4507.070000, 12.577800
4507.880000, 12.622300
4508.680000, 12.666800
4509.480000, 12.711700
4510.290000, 12.757000
4511.090000, 12.802200
4511.890000, 12.846200
4512.700000, 12.890100
4513.500000, 12.933000
4514.310000, 12.975000
4515.110000, 13.016900
4515.910000, 13.058600
4516.720000, 13.100200
4517.520000, 13.142700
4518.320000, 13.185600
4519.130000, 13.228800
4519.930000, 13.272700
4520.730000, 13.316600
4521.540000, 13.359800
4522.340000, 13.402800
4523.140000, 13.445300
4523.950000, 13.486900
4524.750000, 13.528500
4525.550000, 13.569800
4526.360000, 13.611100
4527.160000, 13.652200
4527.970000, 13.693200
4528.770000, 13.734200
4529.570000, 13.774000
4530.380000, 13.813700
4531.180000, 13.852800
4531.980000, 13.891100
4532.790000, 13.929400
4533.590000, 13.967300
4534.390000, 14.005100
4535.200000, 14.042700
4536.000000, 14.080100
4536.800000, 14.117400
4537.610000, 14.153600
4538.410000, 14.189800
4539.210000, 14.225200
4540.020000, 14.260100
4540.820000, 14.295100
4541.630000, 14.329800
4542.430000, 14.364600
4543.230000, 14.399500
4544.040000, 14.434600
4544.840000, 14.469500
4545.640000, 14.503600
4546.450000, 14.537800
4547.250000, 14.570100
4548.050000, 14.601800
4548.860000, 14.633000
4549.660000, 14.662800
4550.460000, 14.692600
4551.270000, 14.722400
4552.070000, 14.752100
4552.880000, 14.781800
4553.680000, 14.811100
4554.480000, 14.840300
4555.290000, 14.867400
4556.090000, 14.893900
4556.890000, 14.919400
4557.700000, 14.942500
4558.500000, 14.965700
4559.300000, 14.987500
4560.110000, 15.009100
4560.910000, 15.030400
4561.710000, 15.051200
4562.520000, 15.072000
4563.320000, 15.091500
4564.120000, 15.110800
4564.930000, 15.129500
4565.730000, 15.146900
4566.540000, 15.164300
4567.340000, 15.180500
4568.140000, 15.196400
4568.950000, 15.212000
4569.750000, 15.226600
4570.550000, 15.241200
4571.360000, 15.254500
4572.160000, 15.267500
4572.960000, 15.280100
4573.770000, 15.291700
4574.570000, 15.303300
4575.370000, 15.314100
4576.180000, 15.324700
4576.980000, 15.335100
4577.780000, 15.344800
4578.590000, 15.354500
4579.390000, 15.362800
4580.200000, 15.370700
4581.000000, 15.377900
4581.800000, 15.383300
4582.610000, 15.388600
4583.410000, 15.391800
4584.210000, 15.394300
4585.020000, 15.396200
4585.820000, 15.395900
4586.620000, 15.395600
4587.430000, 15.394000
4588.230000, 15.391900
4589.030000, 15.389500
4589.840000, 15.386200
4590.640000, 15.382900
4591.450000, 15.378700
4592.250000, 15.374000
4593.050000, 15.369200
4593.860000, 15.362600
4594.660000, 15.356100
4595.460000, 15.348300
4596.270000, 15.339700
4597.070000, 15.331100
4597.870000, 15.320600
4598.680000, 15.310200
4599.480000, 15.299200
4600.280000, 15.287700
4601.090000, 15.276100
4601.890000, 15.263800
4602.690000, 15.251500
4603.500000, 15.238700
4604.300000, 15.225000
4605.110000, 15.211400
4605.910000, 15.196000
4606.710000, 15.180300
4607.520000, 15.163900
4608.320000, 15.145900
4609.120000, 15.128000
4609.930000, 15.108700
4610.730000, 15.089200
4611.530000, 15.069400
4612.340000, 15.048900
4613.140000, 15.028500
4613.940000, 15.007100
4614.750000, 14.985400
4615.550000, 14.963300
4616.360000, 14.939000
4617.160000, 14.914600
4617.960000, 14.888900
4618.770000, 14.861900
4619.570000, 14.835000
4620.370000, 14.806400
4621.180000, 14.777900
4621.980000, 14.748800
4622.780000, 14.719100
4623.590000, 14.689400
4624.390000, 14.658900
4625.190000, 14.628200
4626.000000, 14.597200
4626.800000, 14.565500
4627.600000, 14.533800
4628.410000, 14.501000
4629.210000, 14.467900
4630.020000, 14.434500
4630.820000, 14.399800
4631.620000, 14.365100
4632.430000, 14.329500
4633.230000, 14.293300
4634.030000, 14.257100
4634.840000, 14.219500
4635.640000, 14.181900
4636.440000, 14.143500
4637.250000, 14.104100
4638.050000, 14.064700
4638.850000, 14.023400
4639.660000, 13.981900
4640.460000, 13.940000
4641.260000, 13.897200
4642.070000, 13.854300
4642.870000, 13.811200
4643.680000, 13.767900
4644.480000, 13.724500
4645.280000, 13.680200
4646.090000, 13.635900
4646.890000, 13.590500
4647.690000, 13.544100
4648.500000, 13.497700
4649.300000, 13.449500
4650.100000, 13.401300
4650.910000, 13.352700
4651.710000, 13.303400
4652.510000, 13.254200
4653.320000, 13.204300
4654.120000, 13.154300
4654.930000, 13.104100
4655.730000, 13.052700
4656.530000, 13.001400
4657.340000, 12.949200
4658.140000, 12.896100
4658.940000, 12.843100
4659.750000, 12.788600
4660.550000, 12.733900
4661.350000, 12.678800
4662.160000, 12.622600
4662.960000, 12.566500
4663.760000, 12.509200
4664.570000, 12.451400
4665.370000, 12.393400
4666.170000, 12.334100
4666.980000, 12.274700
4667.780000, 12.215100
4668.590000, 12.155200
4669.390000, 12.095200
4670.190000, 12.034800
4671.000000, 11.974300
4671.800000, 11.913400
4672.600000, 11.851100
4673.410000, 11.788800
4674.210000, 11.725300
4675.010000, 11.661000
4675.820000, 11.596800
4676.620000, 11.531400
4677.420000, 11.466100
4678.230000, 11.400300
4679.030000, 11.333700
4679.830000, 11.267200
4680.640000, 11.198900
4681.440000, 11.130100
4682.250000, 11.061000
4683.050000, 10.989800
4683.850000, 10.918600
4684.660000, 10.846600
4685.460000, 10.773700
4686.260000, 10.700800
4687.070000, 10.627000
4687.870000, 10.553100
4688.670000, 10.479100
4689.480000, 10.404500
4690.280000, 10.330000
4691.080000, 10.255300
4691.890000, 10.180400
4692.690000, 10.105500
4693.500000, 10.030100
4694.300000, 9.954600
4695.100000, 9.878570
4695.910000, 9.801270
4696.710000, 9.723990
4697.510000, 9.644710
4698.320000, 9.564420
4699.120000, 9.484110
4699.920000, 9.400750
4700.730000, 9.317420
4701.530000, 9.233380
4702.330000, 9.148060
4703.140000, 9.062780
4703.940000, 8.976930
4704.740000, 8.890860
4705.550000, 8.804800
4706.350000, 8.718330
4707.160000, 8.631890
4707.960000, 8.545160
4708.760000, 8.457970
4709.570000, 8.370810
4710.370000, 8.283170
4711.170000, 8.195370
4711.980000, 8.107570
4712.780000, 8.019400
4713.580000, 7.931270
4714.390000, 7.842440
4715.190000, 7.752620
4715.990000, 7.662820
4716.800000, 7.570700
4717.600000, 7.477780
4718.410000, 7.384750
4719.210000, 7.289850
4720.010000, 7.194990
4720.820000, 7.100070
4721.620000, 7.005070
4722.420000, 6.910090
4723.230000, 6.815040
4724.030000, 6.719980
4724.830000, 6.624920
4725.640000, 6.529330
4726.440000, 6.433770
4727.240000, 6.338170
4728.050000, 6.242460
4728.850000, 6.146790
4729.650000, 6.051290
4730.460000, 5.955900
4731.260000, 5.860530
4732.070000, 5.765440
4732.870000, 5.670390
4733.670000, 5.575450
4734.480000, 5.480730
4735.280000, 5.386040
4736.080000, 5.291460
4736.890000, 5.196940
4737.690000, 5.102460
4738.490000, 5.007760
4739.300000, 4.913070
4740.100000, 4.818460
4740.900000, 4.724040
4741.710000, 4.629650
4742.510000, 4.536040
4743.310000, 4.443110
4744.120000, 4.350220
4744.920000, 4.258960
4745.730000, 4.168030
4746.530000, 4.077380
4747.330000, 3.988270
4748.140000, 3.899200
4748.940000, 3.810950
4749.740000, 3.723780
4750.550000, 3.636640
4751.350000, 3.551170
4752.150000, 3.466350
4752.960000, 3.381590
4753.760000, 3.299150
4754.560000, 3.216740
4755.370000, 3.134850
4756.170000, 3.054130
4756.980000, 2.973440
4757.780000, 2.893620
4758.580000, 2.814420
4759.390000, 2.735250
4760.190000, 2.658320
4760.990000, 2.581750
4761.800000, 2.505730
4762.600000, 2.432700
4763.400000, 2.359700
4764.210000, 2.288260
4765.010000, 2.218910
4765.810000, 2.149570
4766.620000, 2.082820
4767.420000, 2.017180
4768.220000, 1.951550
4769.030000, 1.889630
4769.830000, 1.827810
4770.640000, 1.766950
4771.440000, 1.708970
4772.240000, 1.651010
4773.050000, 1.594720
4773.850000, 1.540010
4774.650000, 1.485310
4775.460000, 1.432490
4776.260000, 1.380220
4777.060000, 1.328090
4777.870000, 1.278970
4778.670000, 1.229860
4779.470000, 1.182050
4780.280000, 1.137170
4781.080000, 1.092310
4781.880000, 1.049300
4782.690000, 1.007730
4783.490000, 0.966180
4784.300000, 0.926500
4785.100000, 0.887240
4785.900000, 0.848220
4786.710000, 0.812160
4787.510000, 0.776120
4788.310000, 0.741370
4789.120000, 0.709370
4789.920000, 0.677390
4790.720000, 0.647330
4791.530000, 0.618740
4792.330000, 0.590160
4793.130000, 0.563430
4793.940000, 0.537130
4794.740000, 0.510930
4795.550000, 0.486390
4796.350000, 0.461850
4797.150000, 0.437900
4797.960000, 0.415360
4798.760000, 0.392830
4799.560000, 0.371610
4800.370000, 0.351550
4801.170000, 0.331500
4801.970000, 0.313620
4802.780000, 0.296390
4803.580000, 0.279170
4804.380000, 0.264680
4805.190000, 0.250200
4805.990000, 0.236170
4806.790000, 0.223610
4807.600000, 0.211060
4808.400000, 0.199040
4809.210000, 0.187640
4810.010000, 0.176250
4810.810000, 0.165820
4811.620000, 0.155840
4812.420000, 0.145870
4813.220000, 0.137420
4814.030000, 0.129140
4814.830000, 0.121010
4815.630000, 0.113930
4816.440000, 0.106850
4817.240000, 0.100070
4818.040000, 0.093880
4818.850000, 0.087690
4819.650000, 0.081970
4820.450000, 0.076620
4821.260000, 0.071280
4822.060000, 0.066350
4822.870000, 0.061550
4823.670000, 0.056750
4824.470000, 0.052330
4825.280000, 0.047910
4826.080000, 0.043600
4826.880000, 0.039720
4827.690000, 0.035840
4828.490000, 0.032360
4829.290000, 0.029490
4830.100000, 0.026620
4830.900000, 0.024540
4831.700000, 0.023020
4832.510000, 0.021500
4833.310000, 0.020510
4834.120000, 0.019670
4834.920000, 0.018830
4835.720000, 0.017600
4836.530000, 0.016370
4837.330000, 0.015080
4838.130000, 0.013480
4838.940000, 0.011870
4839.740000, 0.010380
4840.540000, 0.009080
4841.350000, 0.007780
4842.150000, 0.006630
4842.950000, 0.005600
4843.760000, 0.004580
4844.560000, 0.003640
4845.360000, 0.002730
4846.170000, 0.001820
4846.970000, 0.001470
4847.780000, 0.001160
4848.580000, 0.000931
4849.380000, 0.001340
4850.190000, 0.001750
4850.990000, 0.002190
4851.790000, 0.002720
4852.600000, 0.003250
4853.400000, 0.003750
4854.200000, 0.004220
4855.010000, 0.004690
4855.810000, 0.005090
4856.610000, 0.005450
4857.420000, 0.005810
4858.220000, 0.005800
4859.030000, 0.005690
4859.830000, 0.005590
4860.630000, 0.005280
4861.440000, 0.004970
4862.240000, 0.004690
4863.040000, 0.004660
4863.850000, 0.004630
4864.650000, 0.004640
4865.450000, 0.004750
4866.260000, 0.004860
4867.060000, 0.004830
4867.860000, 0.004650
4868.670000, 0.004470
4869.470000, 0.004070
4870.270000, 0.003520
4871.080000, 0.002980
4871.880000, 0.002500
4872.690000, 0.002040
4873.490000, 0.001580
4874.290000, 0.001610
4875.100000, 0.001690
4875.900000, 0.001790
4876.700000, 0.002120
4877.510000, 0.002460
4878.310000, 0.002730
4879.110000, 0.002760
4879.920000, 0.002780
4880.720000, 0.002760
4881.520000, 0.002660
4882.330000, 0.002550
4883.130000, 0.002460
4883.930000, 0.002380
4884.740000, 0.002300
4885.540000, 0.001780
4886.350000, 0.001010
4887.150000, 0.000246
4887.950000, 0.000048
4888.760000, 0.000026
4889.560000, 0.000003
4890.360000, 0.000001
4891.170000, 0.000001
4891.970000, 0.000001
4892.770000, 0.000001
4893.580000, 0.000001
4894.380000, 0.000291
4895.180000, 0.002170
4895.990000, 0.004050
4896.790000, 0.005720
4897.600000, 0.006820
4898.400000, 0.007930
4899.200000, 0.008660
4900.010000, 0.008810
4900.810000, 0.008970
4901.610000, 0.008760
4902.420000, 0.008200
4903.220000, 0.007650
4904.020000, 0.006620
4904.830000, 0.005310
4905.630000, 0.004010
4906.430000, 0.002730
4907.240000, 0.001450
4908.040000, 0.000180
4908.840000, 0.000001
4909.650000, 0.000001
4910.450000, 0.000001
4911.260000, 0.000001
4912.060000, 0.000001
4912.860000, 0.000001
4913.670000, 0.000001
4914.470000, 0.000001
4915.270000, 0.000158
4916.080000, 0.001060
4916.880000, 0.001960
4917.680000, 0.002890
4918.490000, 0.003900
4919.290000, 0.004910
4920.090000, 0.005530
4920.900000, 0.005470
4921.700000, 0.005410
4922.500000, 0.005070
4923.310000, 0.004400
4924.110000, 0.003730
4924.920000, 0.003120
4925.720000, 0.002550
4926.520000, 0.001980
4927.330000, 0.001620
4928.130000, 0.001380
4928.930000, 0.001130
4929.740000, 0.001150
4930.540000, 0.001260
4931.340000, 0.001370
4932.150000, 0.001650
4932.950000, 0.001970
4933.750000, 0.002290
4934.560000, 0.002690
4935.360000, 0.003100
4936.170000, 0.003510
4936.970000, 0.004050
4937.770000, 0.004590
4938.580000, 0.005130
4939.380000, 0.005670
4940.180000, 0.006210
4940.990000, 0.006720
4941.790000, 0.007030
4942.590000, 0.007350
4943.400000, 0.007630
4944.200000, 0.007770
4945.000000, 0.007910
4945.810000, 0.007970
4946.610000, 0.007840
4947.410000, 0.007710
4948.220000, 0.007350
4949.020000, 0.006510
4949.830000, 0.005680
4950.630000, 0.004620
4951.430000, 0.003210
4952.240000, 0.001800
4953.040000, 0.000855
4953.840000, 0.000514
4954.650000, 0.000174
4955.450000, 0.000001
4956.250000, 0.000001
4957.060000, 0.000001
4957.860000, 0.000132
4958.660000, 0.000372
4959.470000, 0.000613
4960.270000, 0.001600
4961.080000, 0.003090
4961.880000, 0.004580
4962.680000, 0.005590
4963.490000, 0.006330
4964.290000, 0.007080
4965.090000, 0.006970
4965.900000, 0.006480
4966.700000, 0.006000
4967.500000, 0.005040
4968.310000, 0.003900
4969.110000, 0.002760
4969.910000, 0.001860
4970.720000, 0.001050
4971.520000, 0.000229
4972.320000, 0.000047
4973.130000, 0.000026
4973.930000, 0.000005
4974.740000, 0.000001
4975.540000, 0.000001
4976.340000, 0.000001
4977.150000, 0.000001
4977.950000, 0.000001
4978.750000, 0.000001
4979.560000, 0.000001
4980.360000, 0.000001
4981.160000, 0.000001
4981.970000, 0.000001
4982.770000, 0.000001
4983.570000, 0.000001
4984.380000, 0.000001
4985.180000, 0.000001
4985.980000, 0.000001
4986.790000, 0.000001
4987.590000, 0.000001
4988.400000, 0.000001
4989.200000, 0.000001
4990.000000, 0.000001
4990.810000, 0.000001
4991.610000, 0.000001
4992.410000, 0.000001
4993.220000, 0.000001
4994.020000, 0.000001
4994.820000, 0.000001
4995.630000, 0.000001
4996.430000, 0.000745
4997.230000, 0.001490
4998.040000, 0.002240
4998.840000, 0.003400
4999.650000, 0.004560
5000.000000, 0.005720
