# Wavelength  (nm), Transmission (%)
200.000000, 0.000721
201.000000, 0.000396
202.000000, 0.000388
203.000000, 0.000640
204.000000, 0.000875
205.000000, 0.000391
206.000000, 0.000577
207.000000, 0.000321
208.000000, 0.000160
209.000000, 0.000420
210.000000, 0.000593
211.000000, 0.000251
212.000000, 0.000506
213.000000, 0.000477
214.000000, 0.000473
215.000000, 0.000489
216.000000, 0.000539
217.000000, 0.000571
218.000000, 0.000353
219.000000, 0.000444
220.000000, 0.000521
221.000000, 0.000480
222.000000, 0.000578
223.000000, 0.000483
224.000000, 0.000352
225.000000, 0.000405
226.000000, 0.000425
227.000000, 0.000567
228.000000, 0.000506
229.000000, 0.000550
230.000000, 0.000299
231.000000, 0.000412
232.000000, 0.000505
233.000000, 0.000578
234.000000, 0.000517
235.000000, 0.000380
236.000000, 0.000149
237.000000, 0.000522
238.000000, 0.000558
239.000000, 0.000566
240.000000, 0.000380
241.000000, 0.000433
242.000000, 0.000266
243.000000, 0.000376
244.000000, 0.000254
245.000000, 0.000429
246.000000, 0.000388
247.000000, 0.000457
248.000000, 0.000193
249.000000, 0.000279
250.000000, 0.000254
251.000000, 0.000360
252.000000, 0.000327
253.000000, 0.000214
254.000000, 0.000206
255.000000, 0.000197
256.000000, 0.000108
257.000000, 0.000234
258.000000, 0.000307
259.000000, 0.000072
260.000000, 0.000008
261.000000, 0.000181
262.000000, 0.000193
263.000000, 0.000306
264.000000, 0.000331
265.000000, 0.000193
266.000000, 0.000056
267.000000, 0.000206
268.000000, 0.000246
269.000000, 0.000290
270.000000, 0.000351
271.000000, 0.000214
272.000000, 0.000109
273.000000, 0.000092
274.000000, 0.000258
275.000000, 0.000254
276.000000, 0.000440
277.000000, 0.000068
278.000000, 0.000177
279.000000, 0.000351
280.000000, 0.000339
281.000000, 0.000322
282.000000, 0.000383
283.000000, 0.000169
284.000000, 0.000226
285.000000, 0.000346
286.000000, 0.000459
287.000000, 0.000415
288.000000, 0.000447
289.000000, 0.000153
290.000000, 0.000278
291.000000, 0.000434
292.000000, 0.000470
293.000000, 0.000470
294.000000, 0.000438
295.000000, 0.000362
296.000000, 0.000486
297.000000, 0.000454
298.000000, 0.000650
299.000000, 0.000606
300.000000, 0.000458
301.000000, 0.000194
302.000000, 0.000429
303.000000, 0.000553
304.000000, 0.000497
305.000000, 0.000453
306.000000, 0.000393
307.000000, 0.000501
308.000000, 0.000273
309.000000, 0.000576
310.000000, 0.000532
311.000000, 0.000512
312.000000, 0.000456
313.000000, 0.000432
314.000000, 0.000222
315.000000, 0.000559
316.000000, 0.000479
317.000000, 0.000404
318.000000, 0.000360
319.000000, 0.000277
320.000000, 0.000222
321.000000, 0.000445
322.000000, 0.000401
323.000000, 0.000357
324.000000, 0.000337
325.000000, 0.000377
326.000000, 0.000226
327.000000, 0.000393
328.000000, 0.000452
329.000000, 0.000301
330.000000, 0.000377
331.000000, 0.000237
332.000000, 0.000210
333.000000, 0.000396
334.000000, 0.000448
335.000000, 0.000202
336.000000, 0.000376
337.000000, 0.000237
338.000000, 0.000150
339.000000, 0.000325
340.000000, 0.000321
341.000000, 0.000229
342.000000, 0.000329
343.000000, 0.000182
344.000000, 0.000150
345.000000, 0.000328
346.000000, 0.000392
347.000000, 0.000237
348.000000, 0.000289
349.000000, 0.000210
350.000000, 0.000095
351.000000, 0.000289
352.000000, 0.000265
353.000000, 0.000190
354.000000, 0.000218
355.000000, 0.000257
356.000000, 0.000099
357.000000, 0.000348
358.000000, 0.000241
359.000000, 0.000178
360.000000, 0.000296
361.000000, 0.000206
362.000000, 0.000032
363.000000, 0.000359
364.000000, 0.000273
365.000000, 0.000214
366.000000, 0.000257
367.000000, 0.000214
368.000000, 0.000072
369.000000, 0.000312
370.000000, 0.000229
371.000000, 0.000202
372.000000, 0.000257
373.000000, 0.000214
374.000000, 0.000049
375.000000, 0.000374
376.000000, 0.000253
377.000000, 0.000218
378.000000, 0.000218
379.000000, 0.000288
380.000000, 0.000206
381.000000, 0.000124
382.000000, 0.000288
383.000000, 0.000194
384.000000, 0.000085
385.000000, 0.000284
386.000000, 0.000218
387.000000, 0.000167
388.000000, 0.000229
389.000000, 0.000253
390.000000, 0.000101
391.000000, 0.000299
392.000000, 0.000132
393.000000, 0.000171
394.000000, 0.000241
395.000000, 0.000264
396.000000, 0.000155
397.000000, 0.000272
398.000000, 0.000124
399.000000, 0.000183
400.000000, 0.000229
401.000000, 0.000186
402.000000, 0.000117
403.000000, 0.000376
404.000000, 0.000229
405.000000, 0.000245
406.000000, 0.000252
407.000000, 0.000175
408.000000, 0.000113
409.000000, 0.000279
410.000000, 0.000167
411.000000, 0.000229
412.000000, 0.000341
413.000000, 0.000160
414.000000, 0.000167
415.000000, 0.000237
416.000000, 0.000129
417.000000, 0.000268
418.000000, 0.000310
419.000000, 0.000148
420.000000, 0.000202
421.000000, 0.000260
422.000000, 0.000164
423.000000, 0.000210
424.000000, 0.000267
425.000000, 0.000252
426.000000, 0.000160
427.000000, 0.000333
428.000000, 0.000267
429.000000, 0.000248
430.000000, 0.000313
431.000000, 0.000148
432.000000, 0.000137
433.000000, 0.000294
434.000000, 0.000248
435.000000, 0.000214
436.000000, 0.000306
437.000000, 0.000194
438.000000, 0.000152
439.000000, 0.000267
440.000000, 0.000237
441.000000, 0.000244
442.000000, 0.000233
443.000000, 0.000095
444.000000, 0.000225
445.000000, 0.000240
446.000000, 0.000172
447.000000, 0.000206
448.000000, 0.000286
449.000000, 0.000133
450.000000, 0.000153
451.000000, 0.000236
452.000000, 0.000221
453.000000, 0.000225
454.000000, 0.000286
455.000000, 0.000149
456.000000, 0.000172
457.000000, 0.000305
458.000000, 0.000271
459.000000, 0.000214
460.000000, 0.000275
461.000000, 0.000149
462.000000, 0.000183
463.000000, 0.000240
464.000000, 0.000145
465.000000, 0.000206
466.000000, 0.000282
467.000000, 0.000141
468.000000, 0.000138
469.000000, 0.000210
470.000000, 0.000138
471.000000, 0.000206
472.000000, 0.000290
473.000000, 0.000164
474.000000, 0.000160
475.000000, 0.000229
476.000000, 0.000134
477.000000, 0.000202
478.000000, 0.000217
479.000000, 0.000126
480.000000, 0.000195
481.000000, 0.000210
482.000000, 0.000123
483.000000, 0.000191
484.000000, 0.000282
485.000000, 0.000176
486.000000, 0.000187
487.000000, 0.000229
488.000000, 0.000142
489.000000, 0.000233
490.000000, 0.000278
491.000000, 0.000153
492.000000, 0.000195
493.000000, 0.000229
494.000000, 0.000180
495.000000, 0.000191
496.000000, 0.000270
497.000000, 0.000236
498.000000, 0.000248
499.000000, 0.000301
500.000000, 0.000244
501.000000, 0.000282
502.000000, 0.000244
503.000000, 0.000198
504.000000, 0.000244
505.000000, 0.000255
506.000000, 0.000229
507.000000, 0.000251
508.000000, 0.000312
509.000000, 0.000236
510.000000, 0.000270
511.000000, 0.000327
512.000000, 0.000229
513.000000, 0.000236
514.000000, 0.000319
515.000000, 0.000240
516.000000, 0.000282
517.000000, 0.000297
518.000000, 0.000233
519.000000, 0.000308
520.000000, 0.000308
521.000000, 0.000217
522.000000, 0.000304
523.000000, 0.000316
524.000000, 0.000244
525.000000, 0.000331
526.000000, 0.000315
527.000000, 0.000236
528.000000, 0.000300
529.000000, 0.000361
530.000000, 0.000274
531.000000, 0.000376
532.000000, 0.000357
533.000000, 0.000251
534.000000, 0.000323
535.000000, 0.000342
536.000000, 0.000240
537.000000, 0.000330
538.000000, 0.000334
539.000000, 0.000274
540.000000, 0.000345
541.000000, 0.000315
542.000000, 0.000259
543.000000, 0.000368
544.000000, 0.000349
545.000000, 0.000278
546.000000, 0.000364
547.000000, 0.000398
548.000000, 0.000338
549.000000, 0.000334
550.000000, 0.000285
551.000000, 0.000278
552.000000, 0.000394
553.000000, 0.000304
554.000000, 0.000202
555.000000, 0.000368
556.000000, 0.000330
557.000000, 0.000244
558.000000, 0.000390
559.000000, 0.000304
560.000000, 0.000206
561.000000, 0.000311
562.000000, 0.000270
563.000000, 0.000338
564.000000, 0.000278
565.000000, 0.000293
566.000000, 0.000394
567.000000, 0.000293
568.000000, 0.000225
569.000000, 0.000383
570.000000, 0.000278
571.000000, 0.000289
572.000000, 0.000375
573.000000, 0.000293
574.000000, 0.000274
575.000000, 0.000383
576.000000, 0.000281
577.000000, 0.000251
578.000000, 0.000338
579.000000, 0.000304
580.000000, 0.000285
581.000000, 0.000383
582.000000, 0.000334
583.000000, 0.000304
584.000000, 0.000405
585.000000, 0.000308
586.000000, 0.000251
587.000000, 0.000371
588.000000, 0.000319
589.000000, 0.000274
590.000000, 0.000424
591.000000, 0.000379
592.000000, 0.000349
593.000000, 0.000371
594.000000, 0.000330
595.000000, 0.000266
596.000000, 0.000416
597.000000, 0.000292
598.000000, 0.000304
599.000000, 0.000364
600.000000, 0.000319
601.000000, 0.000244
602.000000, 0.000386
603.000000, 0.000296
604.000000, 0.000364
605.000000, 0.000446
606.000000, 0.000341
607.000000, 0.000217
608.000000, 0.000337
609.000000, 0.000330
610.000000, 0.000337
611.000000, 0.000409
612.000000, 0.000375
613.000000, 0.000311
614.000000, 0.000420
615.000000, 0.000247
616.000000, 0.000345
617.000000, 0.000401
618.000000, 0.000379
619.000000, 0.000307
620.000000, 0.000450
621.000000, 0.000345
622.000000, 0.000285
623.000000, 0.000409
624.000000, 0.000326
625.000000, 0.000337
626.000000, 0.000394
627.000000, 0.000360
628.000000, 0.000330
629.000000, 0.000412
630.000000, 0.000334
631.000000, 0.000375
632.000000, 0.000465
633.000000, 0.000401
634.000000, 0.000341
635.000000, 0.000498
636.000000, 0.000277
637.000000, 0.000333
638.000000, 0.000483
639.000000, 0.000367
640.000000, 0.000270
641.000000, 0.000457
642.000000, 0.000322
643.000000, 0.000360
644.000000, 0.000412
645.000000, 0.000401
646.000000, 0.000330
647.000000, 0.000475
648.000000, 0.000247
649.000000, 0.000326
650.000000, 0.000393
651.000000, 0.000378
652.000000, 0.000318
653.000000, 0.000561
654.000000, 0.000337
655.000000, 0.000378
656.000000, 0.000434
657.000000, 0.000393
658.000000, 0.000300
659.000000, 0.000516
660.000000, 0.000352
661.000000, 0.000333
662.000000, 0.000397
663.000000, 0.000426
664.000000, 0.000396
665.000000, 0.000445
666.000000, 0.000352
667.000000, 0.000355
668.000000, 0.000426
669.000000, 0.000322
670.000000, 0.000299
671.000000, 0.000370
672.000000, 0.000288
673.000000, 0.000269
674.000000, 0.000538
675.000000, 0.000269
676.000000, 0.000314
677.000000, 0.000318
678.000000, 0.000195
679.000000, 0.000240
680.000000, 0.000348
681.000000, 0.000161
682.000000, 0.000284
683.000000, 0.000269
684.000000, 0.000307
685.000000, 0.000303
686.000000, 0.000228
687.000000, 0.000013
688.000000, 0.000091
689.000000, 0.000176
690.000000, 0.000102
691.000000, 0.000054
692.000000, 0.000210
693.000000, 0.000069
694.000000, 0.000143
695.000000, 0.000225
696.000000, 0.000206
697.000000, 0.000073
698.000000, 0.000299
699.000000, 0.000188
700.000000, 0.000266
701.000000, 0.000299
702.000000, 0.000340
703.000000, 0.000162
704.000000, 0.000447
705.000000, 0.000310
706.000000, 0.000417
707.000000, 0.000395
708.000000, 0.000462
709.000000, 0.000413
710.000000, 0.000525
711.000000, 0.000391
712.000000, 0.000458
713.000000, 0.000535
714.000000, 0.000461
715.000000, 0.000328
716.000000, 0.000565
717.000000, 0.000384
718.000000, 0.000502
719.000000, 0.000498
720.000000, 0.000535
721.000000, 0.000335
722.000000, 0.000546
723.000000, 0.000406
724.000000, 0.000483
725.000000, 0.000564
726.000000, 0.000468
727.000000, 0.000387
728.000000, 0.000479
729.000000, 0.000365
730.000000, 0.000453
731.000000, 0.000398
732.000000, 0.000276
733.000000, 0.000155
734.000000, 0.000280
735.000000, 0.000250
736.000000, 0.000339
737.000000, 0.000522
738.000000, 0.000427
739.000000, 0.000500
740.000000, 0.000526
741.000000, 0.000482
742.000000, 0.000537
743.000000, 0.000592
744.000000, 0.000456
745.000000, 0.000503
746.000000, 0.000577
747.000000, 0.000547
748.000000, 0.000492
749.000000, 0.000635
750.000000, 0.000444
751.000000, 0.000540
752.000000, 0.000551
753.000000, 0.000569
754.000000, 0.000539
755.000000, 0.000653
756.000000, 0.000444
757.000000, 0.000609
758.000000, 0.000543
759.000000, 0.000557
760.000000, 0.000495
761.000000, 0.000601
762.000000, 0.000455
763.000000, 0.000542
764.000000, 0.000447
765.000000, 0.000414
766.000000, 0.000370
767.000000, 0.000330
768.000000, 0.000144
769.000000, 0.000305
770.000000, 0.000421
771.000000, 0.000501
772.000000, 0.000516
773.000000, 0.000625
774.000000, 0.000523
775.000000, 0.000596
776.000000, 0.000567
777.000000, 0.000534
778.000000, 0.000548
779.000000, 0.000628
780.000000, 0.000566
781.000000, 0.000555
782.000000, 0.000559
783.000000, 0.000580
784.000000, 0.000631
785.000000, 0.000624
786.000000, 0.000566
787.000000, 0.000565
788.000000, 0.000591
789.000000, 0.000529
790.000000, 0.000612
791.000000, 0.000619
792.000000, 0.000579
793.000000, 0.000579
794.000000, 0.000644
795.000000, 0.000565
796.000000, 0.000623
797.000000, 0.000651
798.000000, 0.000691
799.000000, 0.000532
800.000000, 0.000713
801.000000, 0.000611
802.000000, 0.000658
803.000000, 0.000629
804.000000, 0.000629
805.000000, 0.000604
806.000000, 0.000643
807.000000, 0.000564
808.000000, 0.000593
809.000000, 0.000564
810.000000, 0.000603
811.000000, 0.000657
812.000000, 0.000722
813.000000, 0.000653
814.000000, 0.000621
815.000000, 0.000643
816.000000, 0.000596
817.000000, 0.000653
818.000000, 0.000754
819.000000, 0.000679
820.000000, 0.000610
821.000000, 0.000625
822.000000, 0.000639
823.000000, 0.000621
824.000000, 0.000708
825.000000, 0.000668
826.000000, 0.000693
827.000000, 0.000639
828.000000, 0.000589
829.000000, 0.000618
830.000000, 0.000741
831.000000, 0.000741
832.000000, 0.000752
833.000000, 0.000658
834.000000, 0.000633
835.000000, 0.000659
836.000000, 0.000786
837.000000, 0.000746
838.000000, 0.000728
839.000000, 0.000707
840.000000, 0.000685
841.000000, 0.000668
842.000000, 0.000791
843.000000, 0.000759
844.000000, 0.000752
845.000000, 0.000687
846.000000, 0.000640
847.000000, 0.000636
848.000000, 0.000760
849.000000, 0.000754
850.000000, 0.000721
851.000000, 0.000732
852.000000, 0.000681
853.000000, 0.000692
854.000000, 0.000711
855.000000, 0.000674
856.000000, 0.000671
857.000000, 0.000747
858.000000, 0.000729
859.000000, 0.000719
860.000000, 0.000425
861.000000, 0.000535
862.000000, 0.000858
863.000000, 0.000789
864.000000, 0.000710
865.000000, 0.000604
866.000000, 0.000619
867.000000, 0.000753
868.000000, 0.000842
869.000000, 0.000860
870.000000, 0.000768
871.000000, 0.000580
872.000000, 0.000513
873.000000, 0.000654
874.000000, 0.000747
875.000000, 0.000745
876.000000, 0.000723
877.000000, 0.000719
878.000000, 0.000735
879.000000, 0.000701
880.000000, 0.000647
881.000000, 0.000679
882.000000, 0.000732
883.000000, 0.000735
884.000000, 0.000793
885.000000, 0.000836
886.000000, 0.000693
887.000000, 0.000550
888.000000, 0.000614
889.000000, 0.000724
890.000000, 0.000740
891.000000, 0.000731
892.000000, 0.000730
893.000000, 0.000747
894.000000, 0.000735
895.000000, 0.000621
896.000000, 0.000634
897.000000, 0.000730
898.000000, 0.000746
899.000000, 0.000750
900.000000, 0.000755
901.000000, 0.000744
902.000000, 0.000748
903.000000, 0.000724
904.000000, 0.000653
905.000000, 0.000588
906.000000, 0.000638
907.000000, 0.000750
908.000000, 0.000723
909.000000, 0.000607
910.000000, 0.000637
911.000000, 0.000714
912.000000, 0.000796
913.000000, 0.000907
914.000000, 0.000785
915.000000, 0.000606
916.000000, 0.000647
917.000000, 0.000685
918.000000, 0.000720
919.000000, 0.000751
920.000000, 0.000734
921.000000, 0.000751
922.000000, 0.000734
923.000000, 0.000660
924.000000, 0.000571
925.000000, 0.000655
926.000000, 0.000723
927.000000, 0.000764
928.000000, 0.000858
929.000000, 0.000797
930.000000, 0.000667
931.000000, 0.000555
932.000000, 0.000665
933.000000, 0.000732
934.000000, 0.000726
935.000000, 0.000699
936.000000, 0.000689
937.000000, 0.000705
938.000000, 0.000731
939.000000, 0.000712
940.000000, 0.000708
941.000000, 0.000698
942.000000, 0.000718
943.000000, 0.000716
944.000000, 0.000742
945.000000, 0.000811
946.000000, 0.000714
947.000000, 0.000581
948.000000, 0.000732
949.000000, 0.000891
950.000000, 0.000837
951.000000, 0.000667
952.000000, 0.000575
953.000000, 0.000685
954.000000, 0.000732
955.000000, 0.000758
956.000000, 0.000692
957.000000, 0.000621
958.000000, 0.000676
959.000000, 0.000698
960.000000, 0.000752
961.000000, 0.000738
962.000000, 0.000751
963.000000, 0.000753
964.000000, 0.000602
965.000000, 0.000704
966.000000, 0.000753
967.000000, 0.000774
968.000000, 0.000787
969.000000, 0.000720
970.000000, 0.000581
971.000000, 0.000693
972.000000, 0.000723
973.000000, 0.000702
974.000000, 0.000712
975.000000, 0.000724
976.000000, 0.000697
977.000000, 0.000743
978.000000, 0.000710
979.000000, 0.000792
980.000000, 0.000833
981.000000, 0.000713
982.000000, 0.000668
983.000000, 0.000703
984.000000, 0.000799
985.000000, 0.000690
986.000000, 0.000707
987.000000, 0.000798
988.000000, 0.000658
989.000000, 0.000626
990.000000, 0.000639
991.000000, 0.000710
992.000000, 0.000859
993.000000, 0.000714
994.000000, 0.000644
995.000000, 0.000693
996.000000, 0.000808
997.000000, 0.000736
998.000000, 0.000680
999.000000, 0.000681
1000.000000, 0.000745
1001.000000, 0.000938
1002.000000, 0.000710
1003.000000, 0.000702
1004.000000, 0.000684
1005.000000, 0.000693
1006.000000, 0.000711
1007.000000, 0.000724
1008.000000, 0.000726
1009.000000, 0.000717
1010.000000, 0.000724
1011.000000, 0.000764
1012.000000, 0.000681
1013.000000, 0.000711
1014.000000, 0.000707
1015.000000, 0.000761
1016.000000, 0.000757
1017.000000, 0.000738
1018.000000, 0.000681
1019.000000, 0.000697
1020.000000, 0.000706
1021.000000, 0.000705
1022.000000, 0.000725
1023.000000, 0.000733
1024.000000, 0.000713
1025.000000, 0.000694
1026.000000, 0.000712
1027.000000, 0.000734
1028.000000, 0.000704
1029.000000, 0.000724
1030.000000, 0.000696
1031.000000, 0.000772
1032.000000, 0.000714
1033.000000, 0.000730
1034.000000, 0.000691
1035.000000, 0.000673
1036.000000, 0.000693
1037.000000, 0.000710
1038.000000, 0.000717
1039.000000, 0.000666
1040.000000, 0.000755
1041.000000, 0.000890
1042.000000, 0.000731
1043.000000, 0.000726
1044.000000, 0.000701
1045.000000, 0.000705
1046.000000, 0.000736
1047.000000, 0.000647
1048.000000, 0.000708
1049.000000, 0.000920
1050.000000, 0.000726
1051.000000, 0.000692
1052.000000, 0.000725
1053.000000, 0.000725
1054.000000, 0.000689
1055.000000, 0.000696
1056.000000, 0.000740
1057.000000, 0.000647
1058.000000, 0.000721
1059.000000, 0.000729
1060.000000, 0.000739
1061.000000, 0.000736
1062.000000, 0.000688
1063.000000, 0.000683
1064.000000, 0.000705
1065.000000, 0.000785
1066.000000, 0.000939
1067.000000, 0.000784
1068.000000, 0.000789
1069.000000, 0.000764
1070.000000, 0.000803
1071.000000, 0.000814
1072.000000, 0.000787
1073.000000, 0.000796
1074.000000, 0.000767
1075.000000, 0.000751
1076.000000, 0.000441
1077.000000, 0.000348
1078.000000, 0.000922
1079.000000, 0.000416
1080.000000, 0.000480
1081.000000, 0.000996
1082.000000, 0.000970
1083.000000, 0.000973
1084.000000, 0.000649
1085.000000, 0.000459
1086.000000, 0.000153
1087.000000, 0.000308
1088.000000, 0.000937
1089.000000, 0.006240
1090.000000, 0.019290
1091.000000, 0.095710
1092.000000, 0.257840
1093.000000, 0.479810
1094.000000, 1.569640
1095.000000, 3.058330
1096.000000, 9.017850
1097.000000, 22.833860
1098.000000, 40.977500
1099.000000, 58.539230
1100.000000, 70.204690
1101.000000, 75.356470
1102.000000, 76.526940
1103.000000, 79.348620
1104.000000, 84.486830
1105.000000, 89.000810
1106.000000, 90.762570
1107.000000, 91.080980
1108.000000, 91.597140
1109.000000, 92.762420
1110.000000, 93.952800
1111.000000, 94.421140
1112.000000, 94.120740
1113.000000, 93.563670
1114.000000, 93.469110
1115.000000, 94.032210
1116.000000, 95.067070
1117.000000, 96.107440
1118.000000, 96.718250
1119.000000, 96.807460
1120.000000, 96.427070
1121.000000, 95.916650
1122.000000, 95.580960
1123.000000, 95.559000
1124.000000, 95.911060
1125.000000, 96.521440
1126.000000, 97.056240
1127.000000, 97.374350
1128.000000, 97.461950
1129.000000, 97.223120
1130.000000, 96.845740
1131.000000, 96.467450
1132.000000, 96.145780
1133.000000, 96.012970
1134.000000, 96.104740
1135.000000, 96.389530
1136.000000, 96.812980
1137.000000, 97.220630
1138.000000, 97.553770
1139.000000, 97.783470
1140.000000, 97.862800
1141.000000, 97.789470
1142.000000, 97.629560
1143.000000, 97.444030
1144.000000, 97.258730
1145.000000, 97.158700
1146.000000, 97.164480
1147.000000, 97.268990
1148.000000, 97.432930
1149.000000, 97.674280
1150.000000, 97.850450
1151.000000, 98.022850
1152.000000, 98.097500
1153.000000, 98.084420
1154.000000, 97.995930
1155.000000, 97.896860
1156.000000, 97.756360
1157.000000, 97.650820
1158.000000, 97.570620
1159.000000, 97.553060
1160.000000, 97.600040
1161.000000, 97.657950
1162.000000, 97.814810
1163.000000, 97.991740
1164.000000, 98.106460
1165.000000, 98.224260
1166.000000, 98.288840
1167.000000, 98.332570
1168.000000, 98.321910
1169.000000, 98.293370
1170.000000, 98.242290
1171.000000, 98.151650
1172.000000, 98.108990
1173.000000, 98.076250
1174.000000, 98.035570
1175.000000, 98.028670
1176.000000, 98.055320
1177.000000, 98.107020
1178.000000, 98.195020
1179.000000, 98.307230
1180.000000, 98.393200
1181.000000, 98.446090
1182.000000, 98.512600
1183.000000, 98.540270
1184.000000, 98.543800
1185.000000, 98.518480
1186.000000, 98.491050
1187.000000, 98.430980
1188.000000, 98.384820
1189.000000, 98.389460
1190.000000, 98.377280
1191.000000, 98.353920
1192.000000, 98.376920
1193.000000, 98.422240
1194.000000, 98.481040
1195.000000, 98.524910
1196.000000, 98.562310
1197.000000, 98.633030
1198.000000, 98.678800
1199.000000, 98.697690
1200.000000, 98.713990
1201.000000, 98.706790
1202.000000, 98.682400
1203.000000, 98.659430
1204.000000, 98.622210
1205.000000, 98.595350
1206.000000, 98.562420
1207.000000, 98.519410
1208.000000, 98.493410
1209.000000, 98.495190
1210.000000, 98.489920
1211.000000, 98.509040
1212.000000, 98.549610
1213.000000, 98.578720
1214.000000, 98.629990
1215.000000, 98.698700
1216.000000, 98.736510
1217.000000, 98.752720
1218.000000, 98.787990
1219.000000, 98.816830
1220.000000, 98.818310
1221.000000, 98.804100
1222.000000, 98.797450
1223.000000, 98.779050
1224.000000, 98.752810
1225.000000, 98.712850
1226.000000, 98.667700
1227.000000, 98.651290
1228.000000, 98.636870
1229.000000, 98.608300
1230.000000, 98.580970
1231.000000, 98.615630
1232.000000, 98.666440
1233.000000, 98.676160
1234.000000, 98.694310
1235.000000, 98.726510
1236.000000, 98.733570
1237.000000, 98.778350
1238.000000, 98.831040
1239.000000, 98.842250
1240.000000, 98.844230
1241.000000, 98.847150
1242.000000, 98.844870
1243.000000, 98.853580
1244.000000, 98.859430
1245.000000, 98.845120
1246.000000, 98.821490
1247.000000, 98.818790
1248.000000, 98.815350
1249.000000, 98.813420
1250.000000, 98.803810
1251.000000, 98.791800
1252.000000, 98.779440
1253.000000, 98.792210
1254.000000, 98.817260
1255.000000, 98.802840
1256.000000, 98.818030
1257.000000, 98.845700
1258.000000, 98.849430
1259.000000, 98.867520
1260.000000, 98.880890
1261.000000, 98.891060
1262.000000, 98.913770
1263.000000, 98.928370
1264.000000, 98.928680
1265.000000, 98.921240
1266.000000, 98.913380
1267.000000, 98.877730
1268.000000, 98.845540
1269.000000, 98.826500
1270.000000, 98.807470
1271.000000, 98.788010
1272.000000, 98.767490
1273.000000, 98.771900
1274.000000, 98.788620
1275.000000, 98.797480
1276.000000, 98.797020
1277.000000, 98.793440
1278.000000, 98.818350
1279.000000, 98.857940
1280.000000, 98.879140
1281.000000, 98.884000
1282.000000, 98.892020
1283.000000, 98.923050
1284.000000, 98.944400
1285.000000, 98.941390
1286.000000, 98.945040
1287.000000, 98.960500
1288.000000, 98.968540
1289.000000, 98.936900
1290.000000, 98.931790
1291.000000, 98.936420
1292.000000, 98.914200
1293.000000, 98.918240
1294.000000, 98.908260
1295.000000, 98.884800
1296.000000, 98.887870
1297.000000, 98.901370
1298.000000, 98.904870
1299.000000, 98.888850
1300.000000, 98.865710
1301.000000, 98.860340
1302.000000, 98.864500
1303.000000, 98.872510
1304.000000, 98.913480
1305.000000, 98.922800
1306.000000, 98.928490
1307.000000, 98.964420
1308.000000, 98.981150
1309.000000, 99.009500
1310.000000, 99.005220
1311.000000, 99.001240
1312.000000, 98.995790
1313.000000, 98.989460
1314.000000, 99.019970
1315.000000, 99.004150
1316.000000, 99.009130
1317.000000, 99.001510
1318.000000, 98.968020
1319.000000, 98.948270
1320.000000, 98.949800
1321.000000, 98.952600
1322.000000, 98.918420
1323.000000, 98.913670
1324.000000, 98.909620
1325.000000, 98.911470
1326.000000, 98.906960
1327.000000, 98.911280
1328.000000, 98.915620
1329.000000, 98.944000
1330.000000, 98.948140
1331.000000, 98.952330
1332.000000, 98.969440
1333.000000, 98.970390
1334.000000, 98.989240
1335.000000, 98.990350
1336.000000, 99.020660
1337.000000, 99.039340
1338.000000, 99.041030
1339.000000, 99.039070
1340.000000, 99.043620
1341.000000, 99.055960
1342.000000, 99.054300
1343.000000, 99.047040
1344.000000, 99.047920
1345.000000, 99.072080
1346.000000, 99.058710
1347.000000, 99.057350
1348.000000, 99.018950
1349.000000, 99.036880
1350.000000, 99.049580
1351.000000, 99.056650
1352.000000, 99.029200
1353.000000, 98.953200
1354.000000, 99.030290
1355.000000, 99.034380
1356.000000, 98.971000
1357.000000, 98.910120
1358.000000, 98.942950
1359.000000, 98.947260
1360.000000, 99.015320
1361.000000, 99.058170
1362.000000, 99.045970
1363.000000, 99.036850
1364.000000, 99.085510
1365.000000, 99.099250
1366.000000, 99.113050
1367.000000, 99.144400
1368.000000, 99.158850
1369.000000, 99.163720
1370.000000, 99.159330
1371.000000, 99.112820
1372.000000, 99.144810
1373.000000, 99.134400
1374.000000, 99.100820
1375.000000, 99.030260
1376.000000, 99.086390
1377.000000, 99.025540
1378.000000, 99.045270
1379.000000, 99.023660
1380.000000, 98.981580
1381.000000, 99.020680
1382.000000, 98.995170
1383.000000, 98.990460
1384.000000, 98.983360
1385.000000, 98.954490
1386.000000, 98.969640
1387.000000, 98.966230
1388.000000, 98.965510
1389.000000, 98.951750
1390.000000, 98.939290
1391.000000, 99.035660
1392.000000, 99.033880
1393.000000, 98.995020
1394.000000, 98.998190
1395.000000, 99.020080
1396.000000, 99.030820
1397.000000, 99.061990
1398.000000, 99.042950
1399.000000, 99.133970
1400.000000, 99.101640
1401.000000, 99.117560
1402.000000, 99.115720
1403.000000, 99.113610
1404.000000, 99.115730
1405.000000, 99.135160
1406.000000, 99.146790
1407.000000, 99.167620
1408.000000, 99.143000
1409.000000, 99.146030
1410.000000, 99.167160
1411.000000, 99.141280
1412.000000, 99.104570
1413.000000, 99.146110
1414.000000, 99.108570
1415.000000, 99.097300
1416.000000, 99.103920
1417.000000, 99.121620
1418.000000, 99.121480
1419.000000, 99.094780
1420.000000, 99.106560
1421.000000, 99.087500
1422.000000, 99.087730
1423.000000, 99.108860
1424.000000, 99.102500
1425.000000, 99.104160
1426.000000, 99.104400
1427.000000, 99.124930
1428.000000, 99.142240
1429.000000, 99.142260
1430.000000, 99.146970
1431.000000, 99.155750
1432.000000, 99.133140
1433.000000, 99.179220
1434.000000, 99.166600
1435.000000, 99.197250
1436.000000, 99.207180
1437.000000, 99.219730
1438.000000, 99.250440
1439.000000, 99.230770
1440.000000, 99.205860
1441.000000, 99.264980
1442.000000, 99.201800
1443.000000, 99.211730
1444.000000, 99.191080
1445.000000, 99.184210
1446.000000, 99.185880
1447.000000, 99.156450
1448.000000, 99.195170
1449.000000, 99.163630
1450.000000, 99.179040
1451.000000, 99.136630
1452.000000, 99.148720
1453.000000, 99.131500
1454.000000, 99.101890
1455.000000, 99.119460
1456.000000, 99.114740
1457.000000, 99.053000
1458.000000, 99.130410
1459.000000, 99.144460
1460.000000, 99.141430
1461.000000, 99.103950
1462.000000, 99.122080
1463.000000, 99.167630
1464.000000, 99.137370
1465.000000, 99.140950
1466.000000, 99.143460
1467.000000, 99.151640
1468.000000, 99.184670
1469.000000, 99.210910
1470.000000, 99.230330
1471.000000, 99.233420
1472.000000, 99.243720
1473.000000, 99.220330
1474.000000, 99.234930
1475.000000, 99.233080
1476.000000, 99.247950
1477.000000, 99.249780
1478.000000, 99.258330
1479.000000, 99.267850
1480.000000, 99.231960
1481.000000, 99.236780
1482.000000, 99.247100
1483.000000, 99.265820
1484.000000, 99.291550
1485.000000, 99.249820
1486.000000, 99.249140
1487.000000, 99.220100
1488.000000, 99.237020
1489.000000, 99.244490
1490.000000, 99.256790
1491.000000, 99.231730
1492.000000, 99.210890
1493.000000, 99.201320
1494.000000, 99.206190
1495.000000, 99.215660
1496.000000, 99.231760
1497.000000, 99.176850
1498.000000, 99.189760
1499.000000, 99.244170
1500.000000, 99.199580
1501.000000, 99.241370
1502.000000, 99.257960
1503.000000, 99.253210
1504.000000, 99.223120
1505.000000, 99.240170
1506.000000, 99.252600
1507.000000, 99.268450
1508.000000, 99.265520
1509.000000, 99.271330
1510.000000, 99.280610
1511.000000, 99.315280
1512.000000, 99.314400
1513.000000, 99.323050
1514.000000, 99.333390
1515.000000, 99.328000
1516.000000, 99.322110
1517.000000, 99.326430
1518.000000, 99.352250
1519.000000, 99.337920
1520.000000, 99.309160
1521.000000, 99.309910
1522.000000, 99.325800
1523.000000, 99.320490
1524.000000, 99.335760
1525.000000, 99.345440
1526.000000, 99.320790
1527.000000, 99.329830
1528.000000, 99.325790
1529.000000, 99.312110
1530.000000, 99.317420
1531.000000, 99.302870
1532.000000, 99.282740
1533.000000, 99.271460
1534.000000, 99.259750
1535.000000, 99.284810
1536.000000, 99.298880
1537.000000, 99.273050
1538.000000, 99.241190
1539.000000, 99.240150
1540.000000, 99.274030
1541.000000, 99.286020
1542.000000, 99.289410
1543.000000, 99.281400
1544.000000, 99.287460
1545.000000, 99.297340
1546.000000, 99.309190
1547.000000, 99.326840
1548.000000, 99.350170
1549.000000, 99.341220
1550.000000, 99.330190
1551.000000, 99.337880
1552.000000, 99.325510
1553.000000, 99.309510
1554.000000, 99.337940
1555.000000, 99.351020
1556.000000, 99.375840
1557.000000, 99.400030
1558.000000, 99.404120
1559.000000, 99.419470
1560.000000, 99.433500
1561.000000, 99.412080
1562.000000, 99.408910
1563.000000, 99.425670
1564.000000, 99.417890
1565.000000, 99.420680
1566.000000, 99.418040
1567.000000, 99.403790
1568.000000, 99.388630
1569.000000, 99.369230
1570.000000, 99.366970
1571.000000, 99.360150
1572.000000, 99.338430
1573.000000, 99.336290
1574.000000, 99.349340
1575.000000, 99.336980
1576.000000, 99.334890
1577.000000, 99.340760
1578.000000, 99.316480
1579.000000, 99.308340
1580.000000, 99.309800
1581.000000, 99.318070
1582.000000, 99.305550
1583.000000, 99.329020
1584.000000, 99.320690
1585.000000, 99.325870
1586.000000, 99.337060
1587.000000, 99.314260
1588.000000, 99.293660
1589.000000, 99.296620
1590.000000, 99.314480
1591.000000, 99.309400
1592.000000, 99.325230
1593.000000, 99.339220
1594.000000, 99.346800
1595.000000, 99.352530
1596.000000, 99.366110
1597.000000, 99.362900
1598.000000, 99.368130
1599.000000, 99.368780
1600.000000, 99.353650
1601.000000, 99.361410
1602.000000, 99.377380
1603.000000, 99.384500
1604.000000, 99.390850
1605.000000, 99.387150
1606.000000, 99.371170
1607.000000, 99.380000
1608.000000, 99.395320
1609.000000, 99.399790
1610.000000, 99.411210
1611.000000, 99.418140
1612.000000, 99.407370
1613.000000, 99.387890
1614.000000, 99.373460
1615.000000, 99.364560
1616.000000, 99.356140
1617.000000, 99.362940
1618.000000, 99.365140
1619.000000, 99.324450
1620.000000, 99.324420
1621.000000, 99.351310
1622.000000, 99.339920
1623.000000, 99.335360
1624.000000, 99.341960
1625.000000, 99.335100
1626.000000, 99.342470
1627.000000, 99.346860
1628.000000, 99.322780
1629.000000, 99.322810
1630.000000, 99.319060
1631.000000, 99.304070
1632.000000, 99.314420
1633.000000, 99.349050
1634.000000, 99.340960
1635.000000, 99.303960
1636.000000, 99.271000
1637.000000, 99.291840
1638.000000, 99.334450
1639.000000, 99.337930
1640.000000, 99.336520
1641.000000, 99.319520
1642.000000, 99.328900
1643.000000, 99.345390
1644.000000, 99.346460
1645.000000, 99.349960
1646.000000, 99.353850
1647.000000, 99.349770
1648.000000, 99.362590
1649.000000, 99.387230
1650.000000, 99.370640
1651.000000, 99.380770
1652.000000, 99.404090
1653.000000, 99.411500
1654.000000, 99.413480
1655.000000, 99.410440
1656.000000, 99.401350
1657.000000, 99.382960
1658.000000, 99.357770
1659.000000, 99.346800
1660.000000, 99.325460
1661.000000, 99.288420
1662.000000, 99.301130
1663.000000, 99.307980
1664.000000, 99.303690
1665.000000, 99.287200
1666.000000, 99.265160
1667.000000, 99.262170
1668.000000, 99.266280
1669.000000, 99.262720
1670.000000, 99.242170
1671.000000, 99.239030
1672.000000, 99.253470
1673.000000, 99.247450
1674.000000, 99.247860
1675.000000, 99.214570
1676.000000, 99.202570
1677.000000, 99.185840
1678.000000, 99.170200
1679.000000, 99.146410
1680.000000, 99.162820
1681.000000, 99.169340
1682.000000, 99.165490
1683.000000, 99.175840
1684.000000, 99.195340
1685.000000, 99.170380
1686.000000, 99.153220
1687.000000, 99.171230
1688.000000, 99.173610
1689.000000, 99.172140
1690.000000, 99.180750
1691.000000, 99.193300
1692.000000, 99.215450
1693.000000, 99.216920
1694.000000, 99.241470
1695.000000, 99.248900
1696.000000, 99.261340
1697.000000, 99.265130
1698.000000, 99.238850
1699.000000, 99.231480
1700.000000, 99.267020
1701.000000, 99.301840
1702.000000, 99.317760
1703.000000, 99.319310
1704.000000, 99.313390
1705.000000, 99.316250
1706.000000, 99.283220
1707.000000, 99.275890
1708.000000, 99.294070
1709.000000, 99.325260
1710.000000, 99.332230
1711.000000, 99.310080
1712.000000, 99.311220
1713.000000, 99.316740
1714.000000, 99.318370
1715.000000, 99.297880
1716.000000, 99.281730
1717.000000, 99.302730
1718.000000, 99.303340
1719.000000, 99.310670
1720.000000, 99.290330
1721.000000, 99.275420
1722.000000, 99.254710
1723.000000, 99.241000
1724.000000, 99.229340
1725.000000, 99.207250
1726.000000, 99.202750
1727.000000, 99.192660
1728.000000, 99.170190
1729.000000, 99.180960
1730.000000, 99.168100
1731.000000, 99.154390
1732.000000, 99.143710
1733.000000, 99.140250
1734.000000, 99.123730
1735.000000, 99.128150
1736.000000, 99.127180
1737.000000, 99.121510
1738.000000, 99.118140
1739.000000, 99.101360
1740.000000, 99.092910
1741.000000, 99.122510
1742.000000, 99.115260
1743.000000, 99.114650
1744.000000, 99.123130
1745.000000, 99.123290
1746.000000, 99.131000
1747.000000, 99.138640
1748.000000, 99.150640
1749.000000, 99.180470
1750.000000, 99.167470
1751.000000, 99.158030
1752.000000, 99.185030
1753.000000, 99.175030
1754.000000, 99.191670
1755.000000, 99.223420
1756.000000, 99.233980
1757.000000, 99.230450
1758.000000, 99.235430
1759.000000, 99.242740
1760.000000, 99.281690
1761.000000, 99.284710
1762.000000, 99.281790
1763.000000, 99.298040
1764.000000, 99.278330
1765.000000, 99.296750
1766.000000, 99.261300
1767.000000, 99.296530
1768.000000, 99.306840
1769.000000, 99.286970
1770.000000, 99.283480
1771.000000, 99.265100
1772.000000, 99.267380
1773.000000, 99.280350
1774.000000, 99.297720
1775.000000, 99.308550
1776.000000, 99.284420
1777.000000, 99.261640
1778.000000, 99.263110
1779.000000, 99.271500
1780.000000, 99.235970
1781.000000, 99.256460
1782.000000, 99.230890
1783.000000, 99.256270
1784.000000, 99.231170
1785.000000, 99.215300
1786.000000, 99.214990
1787.000000, 99.186820
1788.000000, 99.162240
1789.000000, 99.163330
1790.000000, 99.133190
1791.000000, 99.124290
1792.000000, 99.127210
1793.000000, 99.138800
1794.000000, 99.111610
1795.000000, 99.095110
1796.000000, 99.128150
1797.000000, 99.094770
1798.000000, 99.073230
1799.000000, 99.053390
1800.000000, 99.104670
1801.000000, 99.104980
1802.000000, 99.110520
1803.000000, 99.059230
1804.000000, 99.098790
1805.000000, 99.101000
1806.000000, 99.138550
1807.000000, 99.166960
1808.000000, 99.150070
1809.000000, 99.163320
1810.000000, 99.141160
1811.000000, 99.125450
1812.000000, 99.142070
1813.000000, 99.161460
1814.000000, 99.174580
1815.000000, 99.194830
1816.000000, 99.198420
1817.000000, 99.224830
1818.000000, 99.216490
1819.000000, 99.221870
1820.000000, 99.326260
1821.000000, 99.337230
1822.000000, 99.326290
1823.000000, 99.259260
1824.000000, 99.292840
1825.000000, 99.322950
1826.000000, 99.337810
1827.000000, 99.357760
1828.000000, 99.339930
1829.000000, 99.357590
1830.000000, 99.397520
1831.000000, 99.416420
1832.000000, 99.318390
1833.000000, 99.396660
1834.000000, 99.442610
1835.000000, 99.430250
1836.000000, 99.394220
1837.000000, 99.435770
1838.000000, 99.436450
1839.000000, 99.465280
1840.000000, 99.432380
1841.000000, 99.371780
1842.000000, 99.375860
1843.000000, 99.401900
1844.000000, 99.358450
1845.000000, 99.423770
1846.000000, 99.394040
1847.000000, 99.424460
1848.000000, 99.434820
1849.000000, 99.389790
1850.000000, 99.351350
1851.000000, 99.320340
1852.000000, 99.325160
1853.000000, 99.348130
1854.000000, 99.328530
1855.000000, 99.303360
1856.000000, 99.303080
1857.000000, 99.288530
1858.000000, 99.279210
1859.000000, 99.270310
1860.000000, 99.238840
1861.000000, 99.264260
1862.000000, 99.266880
1863.000000, 99.196280
1864.000000, 99.219000
1865.000000, 99.163160
1866.000000, 99.197880
1867.000000, 99.236250
1868.000000, 99.225860
1869.000000, 99.215920
1870.000000, 99.237040
1871.000000, 99.220410
1872.000000, 99.200220
1873.000000, 99.240720
1874.000000, 99.252680
1875.000000, 99.246900
1876.000000, 99.186870
1877.000000, 99.150480
1878.000000, 99.217040
1879.000000, 99.185250
1880.000000, 99.205750
1881.000000, 99.247970
1882.000000, 99.247240
1883.000000, 99.272950
1884.000000, 99.279250
1885.000000, 99.282490
1886.000000, 99.277930
1887.000000, 99.295000
1888.000000, 99.327010
1889.000000, 99.314560
1890.000000, 99.327030
1891.000000, 99.368610
1892.000000, 99.353930
1893.000000, 99.361640
1894.000000, 99.380750
1895.000000, 99.366110
1896.000000, 99.351150
1897.000000, 99.409390
1898.000000, 99.436970
1899.000000, 99.420980
1900.000000, 99.440850
1901.000000, 99.399060
1902.000000, 99.364380
1903.000000, 99.390420
1904.000000, 99.378620
1905.000000, 99.376110
1906.000000, 99.399500
1907.000000, 99.432430
1908.000000, 99.424800
1909.000000, 99.385190
1910.000000, 99.372590
1911.000000, 99.400950
1912.000000, 99.448950
1913.000000, 99.436850
1914.000000, 99.419430
1915.000000, 99.395970
1916.000000, 99.394830
1917.000000, 99.403970
1918.000000, 99.365650
1919.000000, 99.388340
1920.000000, 99.377250
1921.000000, 99.336040
1922.000000, 99.284150
1923.000000, 99.303710
1924.000000, 99.316180
1925.000000, 99.322120
1926.000000, 99.321560
1927.000000, 99.285800
1928.000000, 99.296920
1929.000000, 99.276250
1930.000000, 99.248540
1931.000000, 99.257660
1932.000000, 99.243590
1933.000000, 99.230460
1934.000000, 99.215110
1935.000000, 99.219030
1936.000000, 99.221870
1937.000000, 99.233270
1938.000000, 99.219590
1939.000000, 99.209100
1940.000000, 99.185600
1941.000000, 99.175110
1942.000000, 99.178290
1943.000000, 99.163070
1944.000000, 99.173160
1945.000000, 99.146050
1946.000000, 99.159900
1947.000000, 99.168030
1948.000000, 99.168950
1949.000000, 99.185330
1950.000000, 99.198710
1951.000000, 99.186860
1952.000000, 99.185420
1953.000000, 99.207100
1954.000000, 99.206360
1955.000000, 99.207790
1956.000000, 99.195690
1957.000000, 99.228530
1958.000000, 99.223380
1959.000000, 99.255220
1960.000000, 99.283290
1961.000000, 99.285410
1962.000000, 99.279930
1963.000000, 99.276630
1964.000000, 99.300550
1965.000000, 99.319820
1966.000000, 99.313990
1967.000000, 99.318770
1968.000000, 99.329560
1969.000000, 99.332520
1970.000000, 99.327620
1971.000000, 99.319660
1972.000000, 99.334410
1973.000000, 99.363850
1974.000000, 99.361820
1975.000000, 99.359190
1976.000000, 99.364550
1977.000000, 99.360560
1978.000000, 99.353390
1979.000000, 99.362790
1980.000000, 99.371630
1981.000000, 99.365000
1982.000000, 99.354500
1983.000000, 99.343470
1984.000000, 99.328540
1985.000000, 99.320620
1986.000000, 99.312650
1987.000000, 99.314260
1988.000000, 99.318430
1989.000000, 99.317360
1990.000000, 99.333530
1991.000000, 99.351710
1992.000000, 99.330210
1993.000000, 99.297780
1994.000000, 99.279430
1995.000000, 99.258870
1996.000000, 99.255510
1997.000000, 99.281150
1998.000000, 99.284970
1999.000000, 99.263730
2000.000000, 99.251870
2001.000000, 99.249960
2002.000000, 99.231850
2003.000000, 99.211680
2004.000000, 99.220840
2005.000000, 99.230520
2006.000000, 99.218500
2007.000000, 99.215880
2008.000000, 99.226660
2009.000000, 99.228420
2010.000000, 99.221780
2011.000000, 99.213750
2012.000000, 99.196090
2013.000000, 99.160740
2014.000000, 99.162490
2015.000000, 99.192100
2016.000000, 99.201630
2017.000000, 99.192730
2018.000000, 99.175490
2019.000000, 99.185890
2020.000000, 99.212980
2021.000000, 99.226390
2022.000000, 99.208390
2023.000000, 99.184990
2024.000000, 99.197570
2025.000000, 99.206630
2026.000000, 99.222560
2027.000000, 99.217980
2028.000000, 99.204990
2029.000000, 99.224750
2030.000000, 99.260700
2031.000000, 99.273840
2032.000000, 99.267990
2033.000000, 99.265910
2034.000000, 99.262380
2035.000000, 99.283980
2036.000000, 99.303380
2037.000000, 99.315990
2038.000000, 99.318470
2039.000000, 99.319870
2040.000000, 99.346200
2041.000000, 99.353820
2042.000000, 99.360400
2043.000000, 99.341900
2044.000000, 99.338290
2045.000000, 99.354160
2046.000000, 99.358910
2047.000000, 99.354190
2048.000000, 99.350720
2049.000000, 99.384890
2050.000000, 99.410640
2051.000000, 99.417700
2052.000000, 99.399690
2053.000000, 99.400770
2054.000000, 99.420880
2055.000000, 99.422250
2056.000000, 99.421500
2057.000000, 99.436600
2058.000000, 99.461600
2059.000000, 99.473000
2060.000000, 99.461540
2061.000000, 99.443510
2062.000000, 99.447480
2063.000000, 99.454460
2064.000000, 99.451030
2065.000000, 99.459090
2066.000000, 99.456570
2067.000000, 99.430790
2068.000000, 99.427210
2069.000000, 99.447980
2070.000000, 99.459700
2071.000000, 99.439360
2072.000000, 99.412900
2073.000000, 99.437040
2074.000000, 99.415740
2075.000000, 99.402720
2076.000000, 99.389820
2077.000000, 99.391730
2078.000000, 99.389180
2079.000000, 99.410710
2080.000000, 99.396500
2081.000000, 99.398080
2082.000000, 99.361810
2083.000000, 99.363420
2084.000000, 99.348890
2085.000000, 99.350770
2086.000000, 99.346120
2087.000000, 99.341890
2088.000000, 99.340240
2089.000000, 99.337300
2090.000000, 99.369950
2091.000000, 99.378340
2092.000000, 99.372240
2093.000000, 99.365260
2094.000000, 99.362990
2095.000000, 99.378700
2096.000000, 99.396340
2097.000000, 99.401260
2098.000000, 99.399340
2099.000000, 99.395660
2100.000000, 99.406360
2101.000000, 99.410160
2102.000000, 99.410470
2103.000000, 99.413770
2104.000000, 99.433620
2105.000000, 99.424360
2106.000000, 99.431330
2107.000000, 99.435040
2108.000000, 99.428440
2109.000000, 99.420450
2110.000000, 99.450000
2111.000000, 99.469080
2112.000000, 99.494220
2113.000000, 99.494030
2114.000000, 99.511880
2115.000000, 99.506810
2116.000000, 99.529470
2117.000000, 99.512210
2118.000000, 99.504640
2119.000000, 99.526320
2120.000000, 99.568580
2121.000000, 99.540970
2122.000000, 99.528900
2123.000000, 99.530200
2124.000000, 99.537320
2125.000000, 99.543200
2126.000000, 99.532860
2127.000000, 99.559750
2128.000000, 99.552920
2129.000000, 99.564470
2130.000000, 99.545890
2131.000000, 99.530400
2132.000000, 99.522440
2133.000000, 99.490610
2134.000000, 99.488780
2135.000000, 99.489830
2136.000000, 99.497160
2137.000000, 99.490550
2138.000000, 99.470700
2139.000000, 99.441600
2140.000000, 99.434370
2141.000000, 99.421290
2142.000000, 99.394890
2143.000000, 99.360520
2144.000000, 99.386410
2145.000000, 99.359410
2146.000000, 99.339780
2147.000000, 99.279810
2148.000000, 99.250070
2149.000000, 99.242610
2150.000000, 99.198160
2151.000000, 99.178920
2152.000000, 99.157210
2153.000000, 99.149150
2154.000000, 99.099330
2155.000000, 99.055370
2156.000000, 99.039130
2157.000000, 99.025200
2158.000000, 98.985770
2159.000000, 98.951840
2160.000000, 98.913290
2161.000000, 98.859150
2162.000000, 98.871860
2163.000000, 98.866840
2164.000000, 98.840840
2165.000000, 98.807740
2166.000000, 98.769540
2167.000000, 98.745960
2168.000000, 98.734340
2169.000000, 98.702700
2170.000000, 98.725540
2171.000000, 98.696580
2172.000000, 98.676520
2173.000000, 98.618220
2174.000000, 98.645490
2175.000000, 98.619430
2176.000000, 98.589540
2177.000000, 98.586290
2178.000000, 98.567880
2179.000000, 98.556420
2180.000000, 98.531500
2181.000000, 98.546860
2182.000000, 98.555940
2183.000000, 98.539020
2184.000000, 98.575340
2185.000000, 98.585670
2186.000000, 98.590500
2187.000000, 98.643690
2188.000000, 98.693600
2189.000000, 98.707830
2190.000000, 98.745230
2191.000000, 98.780170
2192.000000, 98.876200
2193.000000, 99.007050
2194.000000, 99.460440
2195.000000, 99.690540
2196.000000, 99.761750
2197.000000, 99.842710
2198.000000, 99.851170
2199.000000, 99.895920
2200.000000, 99.937990
2200.900000, 99.930810
2201.710000, 99.923630
2202.510000, 99.910260
2203.320000, 99.901280
2204.120000, 99.896400
2204.920000, 99.890830
2205.730000, 99.888850
2206.530000, 99.883070
2207.330000, 99.870900
2208.140000, 99.864220
2208.940000, 99.867740
2209.740000, 99.871470
2210.550000, 99.864790
2211.350000, 99.858720
2212.150000, 99.856840
2212.960000, 99.852860
2213.760000, 99.851990
2214.560000, 99.847710
2215.370000, 99.830430
2216.170000, 99.814360
2216.980000, 99.798780
2217.780000, 99.780200
2218.580000, 99.754430
2219.390000, 99.733850
2220.190000, 99.718370
2220.990000, 99.686400
2221.800000, 99.662620
2222.600000, 99.639150
2223.400000, 99.596270
2224.210000, 99.560190
2225.010000, 99.528120
2225.810000, 99.484140
2226.620000, 99.423360
2227.420000, 99.358890
2228.220000, 99.302110
2229.030000, 99.244430
2229.830000, 99.184560
2230.640000, 99.123880
2231.440000, 99.052200
2232.240000, 98.979430
2233.050000, 98.912050
2233.850000, 98.834280
2234.650000, 98.755600
2235.460000, 98.672520
2236.260000, 98.591050
2237.060000, 98.511470
2237.870000, 98.398690
2238.670000, 98.272120
2239.470000, 98.156840
2240.280000, 98.066760
2241.080000, 97.979490
2241.890000, 97.875210
2242.690000, 97.750430
2243.490000, 97.622960
2244.300000, 97.504080
2245.100000, 97.385810
2245.900000, 97.261430
2246.710000, 97.141350
2247.510000, 97.019280
2248.310000, 96.887100
2249.120000, 96.755920
2249.920000, 96.620150
2250.720000, 96.479770
2251.530000, 96.352490
2252.330000, 96.227420
2253.130000, 96.082640
2253.940000, 95.939360
2254.740000, 95.803990
2255.550000, 95.656210
2256.350000, 95.495540
2257.150000, 95.346160
2257.960000, 95.202780
2258.760000, 95.071410
2259.560000, 94.938530
2260.370000, 94.787950
2261.170000, 94.632980
2261.970000, 94.482500
2262.780000, 94.347120
2263.580000, 94.210850
2264.380000, 94.075370
2265.190000, 93.942190
2265.990000, 93.795520
2266.800000, 93.661440
2267.600000, 93.520570
2268.400000, 93.374290
2269.210000, 93.236710
2270.010000, 93.091040
2270.810000, 92.965760
2271.620000, 92.851780
2272.420000, 92.726510
2273.220000, 92.597630
2274.030000, 92.469350
2274.830000, 92.345980
2275.630000, 92.226300
2276.440000, 92.111920
2277.240000, 92.004950
2278.040000, 91.892970
2278.850000, 91.777700
2279.650000, 91.669520
2280.460000, 91.574740
2281.260000, 91.484470
2282.060000, 91.391390
2282.870000, 91.299710
2283.670000, 91.212440
2284.470000, 91.128360
2285.280000, 91.056180
2286.080000, 90.986810
2286.880000, 90.910730
2287.690000, 90.836250
2288.490000, 90.769080
2289.290000, 90.710900
2290.100000, 90.654530
2290.900000, 90.586250
2291.700000, 90.523370
2292.510000, 90.480800
2293.310000, 90.439920
2294.120000, 90.396640
2294.920000, 90.358570
2295.720000, 90.341290
2296.530000, 90.328110
2297.330000, 90.293940
2298.130000, 90.255360
2298.940000, 90.225180
2299.740000, 90.206410
2300.540000, 90.202730
2301.350000, 90.203360
2302.150000, 90.192880
2302.950000, 90.191700
2303.760000, 90.207730
2304.560000, 90.214950
2305.370000, 90.213370
2306.170000, 90.225400
2306.970000, 90.240320
2307.780000, 90.255140
2308.580000, 90.278070
2309.380000, 90.301890
2310.190000, 90.321310
2310.990000, 90.347240
2311.790000, 90.382660
2312.600000, 90.422390
2313.400000, 90.449610
2314.200000, 90.476230
2315.010000, 90.510960
2315.810000, 90.556080
2316.610000, 90.604200
2317.420000, 90.641930
2318.220000, 90.679350
2319.030000, 90.718370
2319.830000, 90.758600
2320.630000, 90.796920
2321.440000, 90.832340
2322.240000, 90.873970
2323.040000, 90.917790
2323.850000, 90.965220
2324.650000, 91.011040
2325.450000, 91.049860
2326.260000, 91.091190
2327.060000, 91.134410
2327.860000, 91.170430
2328.670000, 91.209460
2329.470000, 91.250980
2330.270000, 91.289500
2331.080000, 91.322130
2331.880000, 91.330450
2332.690000, 91.340770
2333.490000, 91.370900
2334.290000, 91.397020
2335.100000, 91.412750
2335.900000, 91.424970
2336.700000, 91.440390
2337.510000, 91.453120
2338.310000, 91.452040
2339.110000, 91.445660
2339.920000, 91.442490
2340.720000, 91.439610
2341.520000, 91.435330
2342.330000, 91.414060
2343.130000, 91.386280
2343.940000, 91.359900
2344.740000, 91.328430
2345.540000, 91.299050
2346.350000, 91.268180
2347.150000, 91.222000
2347.950000, 91.166720
2348.760000, 91.111150
2349.560000, 91.057370
2350.360000, 90.997590
2351.170000, 90.930520
2351.970000, 90.854540
2352.770000, 90.770760
2353.580000, 90.679990
2354.380000, 90.585210
2355.180000, 90.483930
2355.990000, 90.380360
2356.790000, 90.270580
2357.600000, 90.153710
2358.400000, 90.028430
2359.200000, 89.901350
2360.010000, 89.772780
2360.810000, 89.640800
2361.610000, 89.510000
2362.420000, 89.367900
2363.220000, 89.223100
2364.020000, 89.080800
2364.830000, 88.934900
2365.630000, 88.782500
2366.430000, 88.616200
2367.240000, 88.444900
2368.040000, 88.264000
2368.850000, 88.083200
2369.650000, 87.901800
2370.450000, 87.720500
2371.260000, 87.543500
2372.060000, 87.359000
2372.860000, 87.171400
2373.670000, 86.980800
2374.470000, 86.789900
2375.270000, 86.588100
2376.080000, 86.374300
2376.880000, 86.165500
2377.680000, 85.961000
2378.490000, 85.751300
2379.290000, 85.537900
2380.090000, 85.331300
2380.900000, 85.126600
2381.700000, 84.913900
2382.510000, 84.701300
2383.310000, 84.492600
2384.110000, 84.282500
2384.920000, 84.065200
2385.720000, 83.848200
2386.520000, 83.630300
2387.330000, 83.411200
2388.130000, 83.194100
2388.930000, 82.983200
2389.740000, 82.774600
2390.540000, 82.563600
2391.340000, 82.356300
2392.150000, 82.155100
2392.950000, 81.953000
2393.750000, 81.748500
2394.560000, 81.544900
2395.360000, 81.345100
2396.170000, 81.145100
2396.970000, 80.943600
2397.770000, 80.746600
2398.580000, 80.555900
2399.380000, 80.367700
2400.180000, 80.187900
2400.990000, 80.012800
2401.790000, 79.833200
2402.590000, 79.658000
2403.400000, 79.488300
2404.200000, 79.323900
2405.000000, 79.165400
2405.810000, 79.005200
2406.610000, 78.842300
2407.420000, 78.686200
2408.220000, 78.534900
2409.020000, 78.388200
2409.830000, 78.254700
2410.630000, 78.122700
2411.430000, 77.990000
2412.240000, 77.866400
2413.040000, 77.745700
2413.840000, 77.622500
2414.650000, 77.506700
2415.450000, 77.398800
2416.250000, 77.293500
2417.060000, 77.190300
2417.860000, 77.092400
2418.660000, 77.001200
2419.470000, 76.914100
2420.270000, 76.830000
2421.080000, 76.749700
2421.880000, 76.674200
2422.680000, 76.604500
2423.490000, 76.545800
2424.290000, 76.492200
2425.090000, 76.434500
2425.900000, 76.380400
2426.700000, 76.330100
2427.500000, 76.280900
2428.310000, 76.239100
2429.110000, 76.204500
2429.910000, 76.168300
2430.720000, 76.137000
2431.520000, 76.118800
2432.320000, 76.109500
2433.130000, 76.093900
2433.930000, 76.073800
2434.740000, 76.066900
2435.540000, 76.066000
2436.340000, 76.064400
2437.150000, 76.066400
2437.950000, 76.073300
2438.750000, 76.085100
2439.560000, 76.098100
2440.360000, 76.112300
2441.160000, 76.133400
2441.970000, 76.158700
2442.770000, 76.186900
2443.570000, 76.215800
2444.380000, 76.243600
2445.180000, 76.275800
2445.990000, 76.309700
2446.790000, 76.340200
2447.590000, 76.372500
2448.400000, 76.410800
2449.200000, 76.455300
2450.000000, 76.501200
2450.810000, 76.544400
2451.610000, 76.586500
2452.410000, 76.626700
2453.220000, 76.672700
2454.020000, 76.722700
2454.820000, 76.772400
2455.630000, 76.818700
2456.430000, 76.860600
2457.230000, 76.902500
2458.040000, 76.948500
2458.840000, 77.000600
2459.650000, 77.051900
2460.450000, 77.095400
2461.250000, 77.136300
2462.060000, 77.177900
2462.860000, 77.222900
2463.660000, 77.268100
2464.470000, 77.306300
2465.270000, 77.341000
2466.070000, 77.373600
2466.880000, 77.402600
2467.680000, 77.437400
2468.480000, 77.477100
2469.290000, 77.508400
2470.090000, 77.527400
2470.890000, 77.545900
2471.700000, 77.570800
2472.500000, 77.590600
2473.310000, 77.596000
2474.110000, 77.598400
2474.910000, 77.599500
2475.720000, 77.592900
2476.520000, 77.583700
2477.320000, 77.577100
2478.130000, 77.565600
2478.930000, 77.550300
2479.730000, 77.530700
2480.540000, 77.498900
2481.340000, 77.461800
2482.140000, 77.428600
2482.950000, 77.397700
2483.750000, 77.360900
2484.560000, 77.304400
2485.360000, 77.232200
2486.160000, 77.166000
2486.970000, 77.103500
2487.770000, 77.037800
2488.570000, 76.963000
2489.380000, 76.882900
2490.180000, 76.798700
2490.980000, 76.701000
2491.790000, 76.598500
2492.590000, 76.499800
2493.390000, 76.397200
2494.200000, 76.292000
2495.000000, 76.178300
2495.800000, 76.056500
2496.610000, 75.933300
2497.410000, 75.803500
2498.220000, 75.666100
2499.020000, 75.525200
2499.820000, 75.381200
2500.630000, 75.234500
2501.430000, 75.084300
2502.230000, 74.930200
2503.040000, 74.772200
2503.840000, 74.603700
2504.640000, 74.436100
2505.450000, 74.273400
2506.250000, 74.096900
2507.050000, 73.904600
2507.860000, 73.718000
2508.660000, 73.540300
2509.470000, 73.360100
2510.270000, 73.169900
2511.070000, 72.970600
2511.880000, 72.767000
2512.680000, 72.567900
2513.480000, 72.373800
2514.290000, 72.184700
2515.090000, 71.987500
2515.890000, 71.776600
2516.700000, 71.563000
2517.500000, 71.347800
2518.300000, 71.138300
2519.110000, 70.936100
2519.910000, 70.719300
2520.710000, 70.497500
2521.520000, 70.282800
2522.320000, 70.071600
2523.130000, 69.871400
2523.930000, 69.669700
2524.730000, 69.444900
2525.540000, 69.226700
2526.340000, 69.016900
2527.140000, 68.803400
2527.950000, 68.591800
2528.750000, 68.387200
2529.550000, 68.184100
2530.360000, 67.988000
2531.160000, 67.803600
2531.960000, 67.607800
2532.770000, 67.394700
2533.570000, 67.165300
2534.370000, 66.949400
2535.180000, 66.781900
2535.980000, 66.605200
2536.790000, 66.375500
2537.590000, 66.158300
2538.390000, 65.982800
2539.200000, 65.805500
2540.000000, 65.619200
2540.800000, 65.443800
2541.610000, 65.287300
2542.410000, 65.134000
2543.210000, 64.952400
2544.020000, 64.770700
2544.820000, 64.605400
2545.620000, 64.429700
2546.430000, 64.273100
2547.230000, 64.145800
2548.040000, 63.996500
2548.840000, 63.811200
2549.640000, 63.663400
2550.450000, 63.539800
2551.250000, 63.396300
2552.050000, 63.266100
2552.860000, 63.139800
2553.660000, 62.976900
2554.460000, 62.830600
2555.270000, 62.714800
2556.070000, 62.600900
2556.870000, 62.486000
2557.680000, 62.374500
2558.480000, 62.276900
2559.280000, 62.207300
2560.090000, 62.163900
2560.890000, 62.099400
2561.700000, 61.994700
2562.500000, 61.894200
2563.300000, 61.803800
2564.110000, 61.722500
2564.910000, 61.623000
2565.710000, 61.512500
2566.520000, 61.430400
2567.320000, 61.374100
2568.120000, 61.339200
2568.930000, 61.322200
2569.730000, 61.267700
2570.530000, 61.163700
2571.340000, 61.098500
2572.140000, 61.077500
2572.940000, 61.068900
2573.750000, 61.030800
2574.550000, 60.984800
2575.360000, 60.964700
2576.160000, 60.961200
2576.960000, 60.938500
2577.770000, 60.876100
2578.570000, 60.837400
2579.370000, 60.838300
2580.180000, 60.855000
2580.980000, 60.873500
2581.780000, 60.869400
2582.590000, 60.879800
2583.390000, 60.925700
2584.190000, 60.939600
2585.000000, 60.887000
2585.800000, 60.883500
2586.610000, 60.924000
2587.410000, 60.966500
2588.210000, 60.982000
2589.020000, 60.997600
2589.820000, 61.004000
2590.620000, 61.004600
2591.430000, 61.030700
2592.230000, 61.091600
2593.030000, 61.161600
2593.840000, 61.230900
2594.640000, 61.317300
2595.440000, 61.380100
2596.250000, 61.367500
2597.050000, 61.358400
2597.850000, 61.364800
2598.660000, 61.381700
2599.460000, 61.420100
2600.270000, 61.481700
2601.070000, 61.556800
2601.870000, 61.621500
2602.680000, 61.669300
2603.480000, 61.737100
2604.280000, 61.819900
2605.090000, 61.883500
2605.890000, 61.922500
2606.690000, 61.953600
2607.500000, 61.980700
2608.300000, 62.004200
2609.100000, 62.045000
2609.910000, 62.095900
2610.710000, 62.128600
2611.520000, 62.162300
2612.320000, 62.221400
2613.120000, 62.293700
2613.930000, 62.346900
2614.730000, 62.392900
2615.530000, 62.456000
2616.340000, 62.552400
2617.140000, 62.651500
2617.940000, 62.659300
2618.750000, 62.644000
2619.550000, 62.668400
2620.350000, 62.709500
2621.160000, 62.704500
2621.960000, 62.687400
2622.760000, 62.695500
2623.570000, 62.716900
2624.370000, 62.739100
2625.180000, 62.770700
2625.980000, 62.819600
2626.780000, 62.853000
2627.590000, 62.837800
2628.390000, 62.843300
2629.190000, 62.890900
2630.000000, 62.954300
2630.800000, 62.941300
2631.600000, 62.862400
2632.410000, 62.840300
2633.210000, 62.844900
2634.010000, 62.816200
2634.820000, 62.748300
2635.620000, 62.700200
2636.420000, 62.672200
2637.230000, 62.644100
2638.030000, 62.613300
2638.840000, 62.577000
2639.640000, 62.535200
2640.440000, 62.499700
2641.250000, 62.469800
2642.050000, 62.418900
2642.850000, 62.335000
2643.660000, 62.257200
2644.460000, 62.215700
2645.260000, 62.190200
2646.070000, 62.120600
2646.870000, 61.994300
2647.670000, 61.874800
2648.480000, 61.775300
2649.280000, 61.678500
2650.090000, 61.586100
2650.890000, 61.512500
2651.690000, 61.462100
2652.500000, 61.370700
2653.300000, 61.205600
2654.100000, 61.077600
2654.910000, 60.987800
2655.710000, 60.856500
2656.510000, 60.689000
2657.320000, 60.552300
2658.120000, 60.440900
2658.920000, 60.347100
2659.730000, 60.222400
2660.530000, 60.045700
2661.330000, 59.902000
2662.140000, 59.760300
2662.940000, 59.613900
2663.750000, 59.513400
2664.550000, 59.431800
2665.350000, 59.290900
2666.160000, 59.118400
2666.960000, 58.914100
2667.760000, 58.668700
2668.570000, 58.506100
2669.370000, 58.421100
2670.170000, 58.290100
2670.980000, 57.932900
2671.780000, 57.695300
2672.580000, 57.565200
2673.390000, 57.410200
2674.190000, 57.259500
2674.990000, 57.137300
2675.800000, 57.019700
2676.600000, 56.869100
2677.410000, 56.592600
2678.210000, 56.280900
2679.010000, 56.020000
2679.820000, 55.716600
2680.620000, 55.442100
2681.420000, 55.233900
2682.230000, 55.037300
2683.030000, 54.796200
2683.830000, 54.453100
2684.640000, 54.066100
2685.440000, 53.732800
2686.240000, 53.355300
2687.050000, 52.878600
2687.850000, 52.448900
2688.660000, 52.037700
2689.460000, 51.550700
2690.260000, 51.080000
2691.070000, 50.662400
2691.870000, 50.258500
2692.670000, 49.909000
2693.480000, 49.556100
2694.280000, 49.060600
2695.080000, 48.562000
2695.890000, 48.096100
2696.690000, 47.615600
2697.490000, 47.219200
2698.300000, 46.854500
2699.100000, 46.481800
2699.900000, 46.135000
2700.710000, 45.783300
2701.510000, 45.314700
2702.320000, 44.863600
2703.120000, 44.547000
2703.920000, 44.261400
2704.730000, 43.959600
2705.530000, 43.653300
2706.330000, 43.365200
2707.140000, 43.113900
2707.940000, 42.911000
2708.740000, 42.717300
2709.550000, 42.473200
2710.350000, 42.208900
2711.150000, 41.929200
2711.960000, 41.656100
2712.760000, 41.469100
2713.570000, 41.315900
2714.370000, 41.153600
2715.170000, 41.000400
2715.980000, 40.871800
2716.780000, 40.763900
2717.580000, 40.657800
2718.390000, 40.555100
2719.190000, 40.494500
2719.990000, 40.475400
2720.800000, 40.380300
2721.600000, 40.190000
2722.400000, 40.089000
2723.210000, 40.058900
2724.010000, 40.047000
2724.810000, 40.018500
2725.620000, 39.949000
2726.420000, 39.879200
2727.230000, 39.839500
2728.030000, 39.821900
2728.830000, 39.811500
2729.640000, 39.801900
2730.440000, 39.799200
2731.240000, 39.810200
2732.050000, 39.828900
2732.850000, 39.848400
2733.650000, 39.874100
2734.460000, 39.911300
2735.260000, 39.949300
2736.060000, 39.974100
2736.870000, 39.998900
2737.670000, 40.043900
2738.470000, 40.125800
2739.280000, 40.258400
2740.080000, 40.377800
2740.890000, 40.428500
2741.690000, 40.461200
2742.490000, 40.483800
2743.300000, 40.506300
2744.100000, 40.550100
2744.900000, 40.618200
2745.710000, 40.699800
2746.510000, 40.783200
2747.310000, 40.869800
2748.120000, 40.966500
2748.920000, 41.069300
2749.720000, 41.170100
2750.530000, 41.275000
2751.330000, 41.396100
2752.140000, 41.524500
2752.940000, 41.634400
2753.740000, 41.730100
2754.550000, 41.841800
2755.350000, 42.002200
2756.150000, 42.157800
2756.960000, 42.242800
2757.760000, 42.316000
2758.560000, 42.399200
2759.370000, 42.488500
2760.170000, 42.582100
2760.970000, 42.678600
2761.780000, 42.780800
2762.580000, 42.901400
2763.380000, 43.042200
2764.190000, 43.165700
2764.990000, 43.253300
2765.800000, 43.332200
2766.600000, 43.428800
2767.400000, 43.543400
2768.210000, 43.662900
2769.010000, 43.772400
2769.810000, 43.883400
2770.620000, 44.030700
2771.420000, 44.203000
2772.220000, 44.353400
2773.030000, 44.473900
2773.830000, 44.578200
2774.630000, 44.686000
2775.440000, 44.811400
2776.240000, 44.954300
2777.040000, 45.105200
2777.850000, 45.245500
2778.650000, 45.363800
2779.460000, 45.468100
2780.260000, 45.576100
2781.060000, 45.708000
2781.870000, 45.855200
2782.670000, 45.980500
2783.470000, 46.079700
2784.280000, 46.170000
2785.080000, 46.264800
2785.880000, 46.376600
2786.690000, 46.514800
2787.490000, 46.667700
2788.290000, 46.796300
2789.100000, 46.884500
2789.900000, 46.958900
2790.710000, 47.045500
2791.510000, 47.144400
2792.310000, 47.245200
2793.120000, 47.346000
2793.920000, 47.447500
2794.720000, 47.550200
2795.530000, 47.655200
2796.330000, 47.758600
2797.130000, 47.859600
2797.940000, 47.961000
2798.740000, 48.058500
2799.540000, 48.149500
2800.350000, 48.239600
2801.150000, 48.334100
2801.950000, 48.439800
2802.760000, 48.564000
2803.560000, 48.685500
2804.370000, 48.761600
2805.170000, 48.801400
2805.970000, 48.844500
2806.780000, 48.905200
2807.580000, 48.972700
2808.380000, 49.037200
2809.190000, 49.095200
2809.990000, 49.145500
2810.790000, 49.192800
2811.600000, 49.241900
2812.400000, 49.292800
2813.200000, 49.346600
2814.010000, 49.403500
2814.810000, 49.456200
2815.610000, 49.493500
2816.420000, 49.517300
2817.220000, 49.542500
2818.030000, 49.577800
2818.830000, 49.618800
2819.630000, 49.655700
2820.440000, 49.680300
2821.240000, 49.688800
2822.040000, 49.685900
2822.850000, 49.680700
2823.650000, 49.675600
2824.450000, 49.669100
2825.260000, 49.661200
2826.060000, 49.656600
2826.860000, 49.657900
2827.670000, 49.656700
2828.470000, 49.641800
2829.280000, 49.616500
2830.080000, 49.590800
2830.880000, 49.564900
2831.690000, 49.535000
2832.490000, 49.504200
2833.290000, 49.476800
2834.100000, 49.447500
2834.900000, 49.409600
2835.700000, 49.366000
2836.510000, 49.326100
2837.310000, 49.292600
2838.110000, 49.252500
2838.920000, 49.192300
2839.720000, 49.120700
2840.520000, 49.052800
2841.330000, 48.990100
2842.130000, 48.928700
2842.940000, 48.863000
2843.740000, 48.791300
2844.540000, 48.720500
2845.350000, 48.655800
2846.150000, 48.591800
2846.950000, 48.524000
2847.760000, 48.454300
2848.560000, 48.381500
2849.360000, 48.296900
2850.170000, 48.201600
2850.970000, 48.110400
2851.770000, 48.030300
2852.580000, 47.958400
2853.380000, 47.889600
2854.190000, 47.812700
2854.990000, 47.716800
2855.790000, 47.607600
2856.600000, 47.501100
2857.400000, 47.404600
2858.200000, 47.316200
2859.010000, 47.230200
2859.810000, 47.139800
2860.610000, 47.042800
2861.420000, 46.944000
2862.220000, 46.849200
2863.020000, 46.758500
2863.830000, 46.666600
2864.630000, 46.571000
2865.430000, 46.476000
2866.240000, 46.382900
2867.040000, 46.286400
2867.850000, 46.187200
2868.650000, 46.090800
2869.450000, 45.998300
2870.260000, 45.908800
2871.060000, 45.818900
2871.860000, 45.723700
2872.670000, 45.625900
2873.470000, 45.531300
2874.270000, 45.439900
2875.080000, 45.348800
2875.880000, 45.257900
2876.680000, 45.168400
2877.490000, 45.078900
2878.290000, 44.987800
2879.090000, 44.897900
2879.900000, 44.812000
2880.700000, 44.728700
2881.510000, 44.647000
2882.310000, 44.568500
2883.110000, 44.493200
2883.920000, 44.416700
2884.720000, 44.335700
2885.520000, 44.256100
2886.330000, 44.183300
2887.130000, 44.113000
2887.930000, 44.037500
2888.740000, 43.957200
2889.540000, 43.879800
2890.340000, 43.809100
2891.150000, 43.742300
2891.950000, 43.676900
2892.760000, 43.613100
2893.560000, 43.550500
2894.360000, 43.487900
2895.170000, 43.425400
2895.970000, 43.364400
2896.770000, 43.306700
2897.580000, 43.253400
2898.380000, 43.205500
2899.180000, 43.164400
2899.990000, 43.129000
2900.790000, 43.091100
2901.590000, 43.044100
2902.400000, 42.993200
2903.200000, 42.946700
2904.000000, 42.907300
2904.810000, 42.871600
2905.610000, 42.836400
2906.420000, 42.802100
2907.220000, 42.770200
2908.020000, 42.741000
2908.830000, 42.715900
2909.630000, 42.696100
2910.430000, 42.679700
2911.240000, 42.662400
2912.040000, 42.642600
2912.840000, 42.622600
2913.650000, 42.605300
2914.450000, 42.592600
2915.250000, 42.582800
2916.060000, 42.573000
2916.860000, 42.564000
2917.660000, 42.557600
2918.470000, 42.552300
2919.270000, 42.545300
2920.080000, 42.539600
2920.880000, 42.542400
2921.680000, 42.557600
2922.490000, 42.579900
2923.290000, 42.597900
2924.090000, 42.605300
2924.900000, 42.608100
2925.700000, 42.616500
2926.500000, 42.632700
2927.310000, 42.652500
2928.110000, 42.673900
2928.910000, 42.698300
2929.720000, 42.725900
2930.520000, 42.754200
2931.330000, 42.781600
2932.130000, 42.810800
2932.930000, 42.844500
2933.740000, 42.880700
2934.540000, 42.917000
2935.340000, 42.954100
2936.150000, 42.991600
2936.950000, 43.029400
2937.750000, 43.071000
2938.560000, 43.119000
2939.360000, 43.171100
2940.160000, 43.222900
2940.970000, 43.274300
2941.770000, 43.327100
2942.570000, 43.382800
2943.380000, 43.440500
2944.180000, 43.497800
2944.990000, 43.553000
2945.790000, 43.608300
2946.590000, 43.668500
2947.400000, 43.735200
2948.200000, 43.804800
2949.000000, 43.871600
2949.810000, 43.933800
2950.610000, 43.994700
2951.410000, 44.058300
2952.220000, 44.126400
2953.020000, 44.198900
2953.820000, 44.275600
2954.630000, 44.354800
2955.430000, 44.433100
2956.240000, 44.508200
2957.040000, 44.581100
2957.840000, 44.655300
2958.650000, 44.732500
2959.450000, 44.812400
2960.250000, 44.895100
2961.060000, 44.980100
2961.860000, 45.066200
2962.660000, 45.151800
2963.470000, 45.235800
2964.270000, 45.318700
2965.070000, 45.401400
2965.880000, 45.485400
2966.680000, 45.571700
2967.480000, 45.660800
2968.290000, 45.752800
2969.090000, 45.846700
2969.900000, 45.938600
2970.700000, 46.024900
2971.500000, 46.107400
2972.310000, 46.189100
2973.110000, 46.272200
2973.910000, 46.359000
2974.720000, 46.450000
2975.520000, 46.543100
2976.320000, 46.634300
2977.130000, 46.721100
2977.930000, 46.803300
2978.730000, 46.883700
2979.540000, 46.965100
2980.340000, 47.048900
2981.140000, 47.136100
2981.950000, 47.225900
2982.750000, 47.315400
2983.560000, 47.402300
2984.360000, 47.484800
2985.160000, 47.562500
2985.970000, 47.638200
2986.770000, 47.715400
2987.570000, 47.794600
2988.380000, 47.874000
2989.180000, 47.951500
2989.980000, 48.026500
2990.790000, 48.100000
2991.590000, 48.174000
2992.390000, 48.248300
2993.200000, 48.320900
2994.000000, 48.390700
2994.810000, 48.457600
2995.610000, 48.519400
2996.410000, 48.577100
2997.220000, 48.633500
2998.020000, 48.687700
2998.820000, 48.739600
2999.630000, 48.792000
3000.430000, 48.847100
3001.230000, 48.902800
3002.040000, 48.955300
3002.840000, 49.002500
3003.640000, 49.046500
3004.450000, 49.090900
3005.250000, 49.136500
3006.050000, 49.180300
3006.860000, 49.216800
3007.660000, 49.245900
3008.470000, 49.271900
3009.270000, 49.297700
3010.070000, 49.322400
3010.880000, 49.345200
3011.680000, 49.367000
3012.480000, 49.388200
3013.290000, 49.406800
3014.090000, 49.421000
3014.890000, 49.431600
3015.700000, 49.441400
3016.500000, 49.451900
3017.300000, 49.460400
3018.110000, 49.464300
3018.910000, 49.464200
3019.710000, 49.462100
3020.520000, 49.459000
3021.320000, 49.455400
3022.130000, 49.450900
3022.930000, 49.442400
3023.730000, 49.426400
3024.540000, 49.403600
3025.340000, 49.380300
3026.140000, 49.359300
3026.950000, 49.335900
3027.750000, 49.308100
3028.550000, 49.276700
3029.360000, 49.242400
3030.160000, 49.205600
3030.960000, 49.167700
3031.770000, 49.130600
3032.570000, 49.094400
3033.380000, 49.056000
3034.180000, 49.012200
3034.980000, 48.964800
3035.790000, 48.918500
3036.590000, 48.872600
3037.390000, 48.823700
3038.200000, 48.769300
3039.000000, 48.708700
3039.800000, 48.643100
3040.610000, 48.574700
3041.410000, 48.506300
3042.210000, 48.438600
3043.020000, 48.370800
3043.820000, 48.303400
3044.620000, 48.235600
3045.430000, 48.164500
3046.230000, 48.089100
3047.040000, 48.011100
3047.840000, 47.932700
3048.640000, 47.853900
3049.450000, 47.774100
3050.250000, 47.695800
3051.050000, 47.621600
3051.860000, 47.547900
3052.660000, 47.470700
3053.460000, 47.389500
3054.270000, 47.305200
3055.070000, 47.219600
3055.870000, 47.134600
3056.680000, 47.050300
3057.480000, 46.963900
3058.280000, 46.871700
3059.090000, 46.777400
3059.890000, 46.685900
3060.700000, 46.596100
3061.500000, 46.504700
3062.300000, 46.410900
3063.110000, 46.317100
3063.910000, 46.225300
3064.710000, 46.134000
3065.520000, 46.042700
3066.320000, 45.953700
3067.120000, 45.864900
3067.930000, 45.774200
3068.730000, 45.681700
3069.530000, 45.589700
3070.340000, 45.500300
3071.140000, 45.414100
3071.950000, 45.329200
3072.750000, 45.241400
3073.550000, 45.150000
3074.360000, 45.057800
3075.160000, 44.967000
3075.960000, 44.878500
3076.770000, 44.792000
3077.570000, 44.706900
3078.370000, 44.621700
3079.180000, 44.536300
3079.980000, 44.453500
3080.780000, 44.372500
3081.590000, 44.290200
3082.390000, 44.206400
3083.190000, 44.122800
3084.000000, 44.040700
3084.800000, 43.958900
3085.610000, 43.876900
3086.410000, 43.797400
3087.210000, 43.722000
3088.020000, 43.649700
3088.820000, 43.579000
3089.620000, 43.508700
3090.430000, 43.438900
3091.230000, 43.370400
3092.030000, 43.302300
3092.840000, 43.234300
3093.640000, 43.167500
3094.440000, 43.102000
3095.250000, 43.037500
3096.050000, 42.973700
3096.860000, 42.911600
3097.660000, 42.852200
3098.460000, 42.794500
3099.270000, 42.736800
3100.070000, 42.680000
3100.870000, 42.625400
3101.680000, 42.574000
3102.480000, 42.525400
3103.280000, 42.478900
3104.090000, 42.433400
3104.890000, 42.388400
3105.690000, 42.343200
3106.500000, 42.297700
3107.300000, 42.253400
3108.100000, 42.212500
3108.910000, 42.176700
3109.710000, 42.146300
3110.520000, 42.118200
3111.320000, 42.088000
3112.120000, 42.055500
3112.930000, 42.023700
3113.730000, 41.996200
3114.530000, 41.974500
3115.340000, 41.956300
3116.140000, 41.936700
3116.940000, 41.916600
3117.750000, 41.897800
3118.550000, 41.880200
3119.350000, 41.863800
3120.160000, 41.849200
3120.960000, 41.838600
3121.760000, 41.832300
3122.570000, 41.826700
3123.370000, 41.820800
3124.180000, 41.815900
3124.980000, 41.813900
3125.780000, 41.816200
3126.590000, 41.821700
3127.390000, 41.827900
3128.190000, 41.834600
3129.000000, 41.842800
3129.800000, 41.852600
3130.600000, 41.863900
3131.410000, 41.876800
3132.210000, 41.892000
3133.010000, 41.909300
3133.820000, 41.929600
3134.620000, 41.953200
3135.430000, 41.979300
3136.230000, 42.006400
3137.030000, 42.033000
3137.840000, 42.059800
3138.640000, 42.089300
3139.440000, 42.123000
3140.250000, 42.160900
3141.050000, 42.201500
3141.850000, 42.242300
3142.660000, 42.281400
3143.460000, 42.320600
3144.260000, 42.363200
3145.070000, 42.409400
3145.870000, 42.458700
3146.670000, 42.510300
3147.480000, 42.564300
3148.280000, 42.621000
3149.090000, 42.678200
3149.890000, 42.735400
3150.690000, 42.793500
3151.500000, 42.854000
3152.300000, 42.917900
3153.100000, 42.984400
3153.910000, 43.052200
3154.710000, 43.122500
3155.510000, 43.195200
3156.320000, 43.269200
3157.120000, 43.342800
3157.920000, 43.415700
3158.730000, 43.491100
3159.530000, 43.570000
3160.330000, 43.651200
3161.140000, 43.733200
3161.940000, 43.814800
3162.750000, 43.898300
3163.550000, 43.985700
3164.350000, 44.075800
3165.160000, 44.167300
3165.960000, 44.260000
3166.760000, 44.353800
3167.570000, 44.448700
3168.370000, 44.544000
3169.170000, 44.640300
3169.980000, 44.738500
3170.780000, 44.838700
3171.580000, 44.940400
3172.390000, 45.042700
3173.190000, 45.144900
3174.000000, 45.247300
3174.800000, 45.350700
3175.600000, 45.456100
3176.410000, 45.563800
3177.210000, 45.673700
3178.010000, 45.784300
3178.820000, 45.895900
3179.620000, 46.008900
3180.420000, 46.123300
3181.230000, 46.238700
3182.030000, 46.355200
3182.830000, 46.473700
3183.640000, 46.593800
3184.440000, 46.714600
3185.240000, 46.834800
3186.050000, 46.953500
3186.850000, 47.071200
3187.660000, 47.188500
3188.460000, 47.306400
3189.260000, 47.425900
3190.070000, 47.548300
3190.870000, 47.675100
3191.670000, 47.803800
3192.480000, 47.931700
3193.280000, 48.057000
3194.080000, 48.179300
3194.890000, 48.301000
3195.690000, 48.425100
3196.490000, 48.551000
3197.300000, 48.677200
3198.100000, 48.802500
3198.910000, 48.925600
3199.710000, 49.047200
3200.510000, 49.169400
3201.320000, 49.292600
3202.120000, 49.416600
3202.920000, 49.540500
3203.730000, 49.661600
3204.530000, 49.781000
3205.330000, 49.901800
3206.140000, 50.025100
3206.940000, 50.149900
3207.740000, 50.272300
3208.550000, 50.390800
3209.350000, 50.508000
3210.150000, 50.624900
3210.960000, 50.741800
3211.760000, 50.858700
3212.570000, 50.973600
3213.370000, 51.085000
3214.170000, 51.194200
3214.980000, 51.302900
3215.780000, 51.413200
3216.580000, 51.523400
3217.390000, 51.631000
3218.190000, 51.736200
3218.990000, 51.839100
3219.800000, 51.939600
3220.600000, 52.036800
3221.400000, 52.132600
3222.210000, 52.228000
3223.010000, 52.323300
3223.810000, 52.418800
3224.620000, 52.514200
3225.420000, 52.607800
3226.230000, 52.698000
3227.030000, 52.783900
3227.830000, 52.865300
3228.640000, 52.943900
3229.440000, 53.022100
3230.240000, 53.099000
3231.050000, 53.173600
3231.850000, 53.244600
3232.650000, 53.312400
3233.460000, 53.379800
3234.260000, 53.447500
3235.060000, 53.515000
3235.870000, 53.581000
3236.670000, 53.641600
3237.480000, 53.698800
3238.280000, 53.753200
3239.080000, 53.804600
3239.890000, 53.851800
3240.690000, 53.893900
3241.490000, 53.934500
3242.300000, 53.974000
3243.100000, 54.012100
3243.900000, 54.047400
3244.710000, 54.079100
3245.510000, 54.108900
3246.310000, 54.136800
3247.120000, 54.162400
3247.920000, 54.183900
3248.720000, 54.200100
3249.530000, 54.211900
3250.330000, 54.219800
3251.140000, 54.224000
3251.940000, 54.225400
3252.740000, 54.226500
3253.550000, 54.227700
3254.350000, 54.228400
3255.150000, 54.227600
3255.960000, 54.223000
3256.760000, 54.215600
3257.560000, 54.204900
3258.370000, 54.190700
3259.170000, 54.172800
3259.970000, 54.153100
3260.780000, 54.132000
3261.580000, 54.108200
3262.380000, 54.080300
3263.190000, 54.045800
3263.990000, 54.007400
3264.800000, 53.968100
3265.600000, 53.929100
3266.400000, 53.891000
3267.210000, 53.851000
3268.010000, 53.808900
3268.810000, 53.764900
3269.620000, 53.719600
3270.420000, 53.671700
3271.220000, 53.619500
3272.030000, 53.564500
3272.830000, 53.507400
3273.630000, 53.449300
3274.440000, 53.388600
3275.240000, 53.325100
3276.050000, 53.258800
3276.850000, 53.189700
3277.650000, 53.118200
3278.460000, 53.045900
3279.260000, 52.973600
3280.060000, 52.901300
3280.870000, 52.828900
3281.670000, 52.754900
3282.470000, 52.678800
3283.280000, 52.600200
3284.080000, 52.518900
3284.880000, 52.435700
3285.690000, 52.353200
3286.490000, 52.270900
3287.290000, 52.187600
3288.100000, 52.100800
3288.900000, 52.010400
3289.710000, 51.919100
3290.510000, 51.827700
3291.310000, 51.736800
3292.120000, 51.647000
3292.920000, 51.559500
3293.720000, 51.473600
3294.530000, 51.388400
3295.330000, 51.300000
3296.130000, 51.207600
3296.940000, 51.112500
3297.740000, 51.015500
3298.540000, 50.917100
3299.350000, 50.818500
3300.150000, 50.720600
3300.960000, 50.623800
3301.760000, 50.528100
3302.560000, 50.433300
3303.370000, 50.338200
3304.170000, 50.242200
3304.970000, 50.145000
3305.780000, 50.047000
3306.580000, 49.949200
3307.380000, 49.851900
3308.190000, 49.755400
3308.990000, 49.660800
3309.790000, 49.567600
3310.600000, 49.474800
3311.400000, 49.382100
3312.200000, 49.289600
3313.010000, 49.199200
3313.810000, 49.110300
3314.620000, 49.022100
3315.420000, 48.932800
3316.220000, 48.841300
3317.030000, 48.750000
3317.830000, 48.659800
3318.630000, 48.572100
3319.440000, 48.486300
3320.240000, 48.400400
3321.040000, 48.313900
3321.850000, 48.226000
3322.650000, 48.137900
3323.450000, 48.051900
3324.260000, 47.968100
3325.060000, 47.886700
3325.860000, 47.805900
3326.670000, 47.725600
3327.470000, 47.647000
3328.280000, 47.571200
3329.080000, 47.499000
3329.880000, 47.426200
3330.690000, 47.352200
3331.490000, 47.276400
3332.290000, 47.201800
3333.100000, 47.130500
3333.900000, 47.062200
3334.700000, 46.996900
3335.510000, 46.932300
3336.310000, 46.866500
3337.110000, 46.800000
3337.920000, 46.733400
3338.720000, 46.670800
3339.530000, 46.610900
3340.330000, 46.552800
3341.130000, 46.495300
3341.940000, 46.437100
3342.740000, 46.379700
3343.540000, 46.324100
3344.350000, 46.271600
3345.150000, 46.223900
3345.950000, 46.177600
3346.760000, 46.132000
3347.560000, 46.086200
3348.360000, 46.041500
3349.170000, 45.998800
3349.970000, 45.958300
3350.770000, 45.920100
3351.580000, 45.884600
3352.380000, 45.851500
3353.190000, 45.820900
3353.990000, 45.792700
3354.790000, 45.765100
3355.600000, 45.737600
3356.400000, 45.710400
3357.200000, 45.683400
3358.010000, 45.657100
3358.810000, 45.632200
3359.610000, 45.609300
3360.420000, 45.590200
3361.220000, 45.573400
3362.020000, 45.558000
3362.830000, 45.543700
3363.630000, 45.530800
3364.430000, 45.519200
3365.240000, 45.509000
3366.040000, 45.500700
3366.850000, 45.494400
3367.650000, 45.488900
3368.450000, 45.484100
3369.260000, 45.480400
3370.060000, 45.479400
3370.860000, 45.480800
3371.670000, 45.484500
3372.470000, 45.491300
3373.270000, 45.501600
3374.080000, 45.514800
3374.880000, 45.530900
3375.680000, 45.549400
3376.490000, 45.567800
3377.290000, 45.586000
3378.100000, 45.603700
3378.900000, 45.623100
3379.700000, 45.644700
3380.510000, 45.668700
3381.310000, 45.695700
3382.110000, 45.724600
3382.920000, 45.754900
3383.720000, 45.786800
3384.520000, 45.823000
3385.330000, 45.862900
3386.130000, 45.905300
3386.930000, 45.949600
3387.740000, 45.994000
3388.540000, 46.038600
3389.340000, 46.083900
3390.150000, 46.131100
3390.950000, 46.181600
3391.760000, 46.234100
3392.560000, 46.288300
3393.360000, 46.342900
3394.170000, 46.397200
3394.970000, 46.451800
3395.770000, 46.507500
3396.580000, 46.566100
3397.380000, 46.626700
3398.180000, 46.689300
3398.990000, 46.754700
3399.790000, 46.822900
3400.590000, 46.893200
3401.400000, 46.965400
3402.200000, 47.039700
3403.000000, 47.115300
3403.810000, 47.192300
3404.610000, 47.271200
3405.420000, 47.352100
3406.220000, 47.434700
3407.020000, 47.519100
3407.830000, 47.606800
3408.630000, 47.696400
3409.430000, 47.787400
3410.240000, 47.880200
3411.040000, 47.975100
3411.840000, 48.072100
3412.650000, 48.171200
3413.450000, 48.272700
3414.250000, 48.374300
3415.060000, 48.476000
3415.860000, 48.577900
3416.670000, 48.682200
3417.470000, 48.788100
3418.270000, 48.895600
3419.080000, 49.004300
3419.880000, 49.115000
3420.680000, 49.228000
3421.490000, 49.345500
3422.290000, 49.466700
3423.090000, 49.588600
3423.900000, 49.710500
3424.700000, 49.830900
3425.500000, 49.952500
3426.310000, 50.075300
3427.110000, 50.200600
3427.910000, 50.326700
3428.720000, 50.453400
3429.520000, 50.581000
3430.330000, 50.711600
3431.130000, 50.843400
3431.930000, 50.976100
3432.740000, 51.109600
3433.540000, 51.244200
3434.340000, 51.379600
3435.150000, 51.515600
3435.950000, 51.651500
3436.750000, 51.787400
3437.560000, 51.923300
3438.360000, 52.059800
3439.160000, 52.197700
3439.970000, 52.337100
3440.770000, 52.479600
3441.580000, 52.624600
3442.380000, 52.770200
3443.180000, 52.915700
3443.990000, 53.058700
3444.790000, 53.200900
3445.590000, 53.342600
3446.400000, 53.485500
3447.200000, 53.630400
3448.000000, 53.776600
3448.810000, 53.924200
3449.610000, 54.072300
3450.410000, 54.221100
3451.220000, 54.370500
3452.020000, 54.520700
3452.820000, 54.670000
3453.630000, 54.818200
3454.430000, 54.964200
3455.240000, 55.109800
3456.040000, 55.255200
3456.840000, 55.400500
3457.650000, 55.545200
3458.450000, 55.690100
3459.250000, 55.835500
3460.060000, 55.982100
3460.860000, 56.128700
3461.660000, 56.275100
3462.470000, 56.421700
3463.270000, 56.568600
3464.070000, 56.715200
3464.880000, 56.859800
3465.680000, 57.001600
3466.480000, 57.142000
3467.290000, 57.281600
3468.090000, 57.421500
3468.900000, 57.561000
3469.700000, 57.700100
3470.500000, 57.837100
3471.310000, 57.972300
3472.110000, 58.106000
3472.910000, 58.237300
3473.720000, 58.367800
3474.520000, 58.497800
3475.320000, 58.627000
3476.130000, 58.754500
3476.930000, 58.880700
3477.730000, 59.004800
3478.540000, 59.126400
3479.340000, 59.246300
3480.150000, 59.364400
3480.950000, 59.479900
3481.750000, 59.593900
3482.560000, 59.706000
3483.360000, 59.813700
3484.160000, 59.918300
3484.970000, 60.020300
3485.770000, 60.119300
3486.570000, 60.217000
3487.380000, 60.313900
3488.180000, 60.409600
3488.980000, 60.502800
3489.790000, 60.593900
3490.590000, 60.681800
3491.390000, 60.765500
3492.200000, 60.846900
3493.000000, 60.925700
3493.810000, 61.002300
3494.610000, 61.078400
3495.410000, 61.154100
3496.220000, 61.227800
3497.020000, 61.297900
3497.820000, 61.364400
3498.630000, 61.422400
3499.430000, 61.476400
3500.230000, 61.526900
3501.040000, 61.573100
3501.840000, 61.617300
3502.640000, 61.660200
3503.450000, 61.701800
3504.250000, 61.741000
3505.050000, 61.777500
3505.860000, 61.808200
3506.660000, 61.833500
3507.470000, 61.856100
3508.270000, 61.876700
3509.070000, 61.896200
3509.880000, 61.914300
3510.680000, 61.929500
3511.480000, 61.938700
3512.290000, 61.943900
3513.090000, 61.944000
3513.890000, 61.937700
3514.700000, 61.928400
3515.500000, 61.915600
3516.300000, 61.899100
3517.110000, 61.880100
3517.910000, 61.858300
3518.720000, 61.830800
3519.520000, 61.800900
3520.320000, 61.768400
3521.130000, 61.732300
3521.930000, 61.693500
3522.730000, 61.652000
3523.540000, 61.605300
3524.340000, 61.557100
3525.140000, 61.507500
3525.950000, 61.454500
3526.750000, 61.397800
3527.550000, 61.337500
3528.360000, 61.269900
3529.160000, 61.199700
3529.960000, 61.127200
3530.770000, 61.051100
3531.570000, 60.972400
3532.380000, 60.891200
3533.180000, 60.805700
3533.980000, 60.718500
3534.790000, 60.629800
3535.590000, 60.538400
3536.390000, 60.445100
3537.200000, 60.350000
3538.000000, 60.251600
3538.800000, 60.151600
3539.610000, 60.049900
3540.410000, 59.945100
3541.210000, 59.837400
3542.020000, 59.727200
3542.820000, 59.610800
3543.630000, 59.492100
3544.430000, 59.371300
3545.230000, 59.248700
3546.040000, 59.125000
3546.840000, 59.000300
3547.640000, 58.873200
3548.450000, 58.745400
3549.250000, 58.616900
3550.050000, 58.487200
3550.860000, 58.356700
3551.660000, 58.225200
3552.460000, 58.091600
3553.270000, 57.956900
3554.070000, 57.821000
3554.870000, 57.682500
3555.680000, 57.542600
3556.480000, 57.400800
3557.290000, 57.257400
3558.090000, 57.113800
3558.890000, 56.969800
3559.700000, 56.824000
3560.500000, 56.676600
3561.300000, 56.526900
3562.110000, 56.375500
3562.910000, 56.223900
3563.710000, 56.072400
3564.520000, 55.921300
3565.320000, 55.770600
3566.120000, 55.620100
3566.930000, 55.469200
3567.730000, 55.317700
3568.530000, 55.164700
3569.340000, 55.010900
3570.140000, 54.856800
3570.950000, 54.703500
3571.750000, 54.550600
3572.550000, 54.398000
3573.360000, 54.244600
3574.160000, 54.090500
3574.960000, 53.935700
3575.770000, 53.780200
3576.570000, 53.624800
3577.370000, 53.469600
3578.180000, 53.314900
3578.980000, 53.161300
3579.780000, 53.009000
3580.590000, 52.860100
3581.390000, 52.712100
3582.200000, 52.564800
3583.000000, 52.415500
3583.800000, 52.265100
3584.610000, 52.113500
3585.410000, 51.963100
3586.210000, 51.813800
3587.020000, 51.667300
3587.820000, 51.521800
3588.620000, 51.377000
3589.430000, 51.231400
3590.230000, 51.084900
3591.030000, 50.937600
3591.840000, 50.790700
3592.640000, 50.644800
3593.440000, 50.500200
3594.250000, 50.357900
3595.050000, 50.216500
3595.860000, 50.076000
3596.660000, 49.936300
3597.460000, 49.797100
3598.270000, 49.659100
3599.070000, 49.522400
3599.870000, 49.386700
3600.680000, 49.252000
3601.480000, 49.118000
3602.280000, 48.984500
3603.090000, 48.852600
3603.890000, 48.721300
3604.690000, 48.590600
3605.500000, 48.460300
3606.300000, 48.330700
3607.100000, 48.202100
3607.910000, 48.075300
3608.710000, 47.949600
3609.520000, 47.825200
3610.320000, 47.701800
3611.120000, 47.579200
3611.930000, 47.458800
3612.730000, 47.339700
3613.530000, 47.221900
3614.340000, 47.105700
3615.140000, 46.990100
3615.940000, 46.875300
3616.750000, 46.762500
3617.550000, 46.650900
3618.350000, 46.541400
3619.160000, 46.432200
3619.960000, 46.323300
3620.770000, 46.214300
3621.570000, 46.106400
3622.370000, 45.999200
3623.180000, 45.894700
3623.980000, 45.790900
3624.780000, 45.688100
3625.590000, 45.586400
3626.390000, 45.485400
3627.190000, 45.385800
3628.000000, 45.287100
3628.800000, 45.189000
3629.600000, 45.091500
3630.410000, 44.995100
3631.210000, 44.899800
3632.010000, 44.808400
3632.820000, 44.718700
3633.620000, 44.631600
3634.430000, 44.545300
3635.230000, 44.459200
3636.030000, 44.372300
3636.840000, 44.285300
3637.640000, 44.198200
3638.440000, 44.113500
3639.250000, 44.030400
3640.050000, 43.949600
3640.850000, 43.870900
3641.660000, 43.793100
3642.460000, 43.716300
3643.260000, 43.639900
3644.070000, 43.563700
3644.870000, 43.488100
3645.670000, 43.413500
3646.480000, 43.340300
3647.280000, 43.270300
3648.090000, 43.201700
3648.890000, 43.135200
3649.690000, 43.070500
3650.500000, 43.006800
3651.300000, 42.946300
3652.100000, 42.887100
3652.910000, 42.829300
3653.710000, 42.771900
3654.510000, 42.714500
3655.320000, 42.656700
3656.120000, 42.599200
3656.920000, 42.542200
3657.730000, 42.487200
3658.530000, 42.433200
3659.340000, 42.380500
3660.140000, 42.329600
3660.940000, 42.279300
3661.750000, 42.230200
3662.550000, 42.182100
3663.350000, 42.134800
3664.160000, 42.091100
3664.960000, 42.049300
3665.760000, 42.010400
3666.570000, 41.974200
3667.370000, 41.938900
3668.170000, 41.904400
3668.980000, 41.870300
3669.780000, 41.836400
3670.580000, 41.803500
3671.390000, 41.771400
3672.190000, 41.740400
3673.000000, 41.710900
3673.800000, 41.682200
3674.600000, 41.655400
3675.410000, 41.629700
3676.210000, 41.605300
3677.010000, 41.583400
3677.820000, 41.562600
3678.620000, 41.544200
3679.420000, 41.527000
3680.230000, 41.510700
3681.030000, 41.496300
3681.830000, 41.482600
3682.640000, 41.470300
3683.440000, 41.460400
3684.250000, 41.451600
3685.050000, 41.446200
3685.850000, 41.442100
3686.660000, 41.439400
3687.460000, 41.438200
3688.260000, 41.437600
3689.070000, 41.439000
3689.870000, 41.442200
3690.670000, 41.446700
3691.480000, 41.454500
3692.280000, 41.463200
3693.080000, 41.473800
3693.890000, 41.485000
3694.690000, 41.496500
3695.490000, 41.508500
3696.300000, 41.521300
3697.100000, 41.535500
3697.910000, 41.552200
3698.710000, 41.570100
3699.510000, 41.590500
3700.320000, 41.612400
3701.120000, 41.636000
3701.920000, 41.663000
3702.730000, 41.691500
3703.530000, 41.723400
3704.330000, 41.756800
3705.140000, 41.791700
3705.940000, 41.828100
3706.740000, 41.865200
3707.550000, 41.903600
3708.350000, 41.944100
3709.150000, 41.985900
3709.960000, 42.031400
3710.760000, 42.077600
3711.570000, 42.125300
3712.370000, 42.173700
3713.170000, 42.222400
3713.980000, 42.274100
3714.780000, 42.327500
3715.580000, 42.384300
3716.390000, 42.444000
3717.190000, 42.505200
3717.990000, 42.568200
3718.800000, 42.631300
3719.600000, 42.694700
3720.400000, 42.759500
3721.210000, 42.825100
3722.010000, 42.895300
3722.820000, 42.967500
3723.620000, 43.043100
3724.420000, 43.121400
3725.230000, 43.200800
3726.030000, 43.281900
3726.830000, 43.363400
3727.640000, 43.445600
3728.440000, 43.529800
3729.240000, 43.614800
3730.050000, 43.703300
3730.850000, 43.792800
3731.650000, 43.883900
3732.460000, 43.976100
3733.260000, 44.068800
3734.060000, 44.164000
3734.870000, 44.260500
3735.670000, 44.359400
3736.480000, 44.460400
3737.280000, 44.562300
3738.080000, 44.667500
3738.890000, 44.773900
3739.690000, 44.883100
3740.490000, 44.993700
3741.300000, 45.105200
3742.100000, 45.217600
3742.900000, 45.330800
3743.710000, 45.445600
3744.510000, 45.562400
3745.310000, 45.680500
3746.120000, 45.801000
3746.920000, 45.922300
3747.720000, 46.046000
3748.530000, 46.172000
3749.330000, 46.299800
3750.140000, 46.430400
3750.940000, 46.561600
3751.740000, 46.694000
3752.550000, 46.826800
3753.350000, 46.960200
3754.150000, 47.094900
3754.960000, 47.230200
3755.760000, 47.367500
3756.560000, 47.505400
3757.370000, 47.644300
3758.170000, 47.783700
3758.970000, 47.923300
3759.780000, 48.063500
3760.580000, 48.204200
3761.390000, 48.346100
3762.190000, 48.490100
3762.990000, 48.635200
3763.800000, 48.783200
3764.600000, 48.931800
3765.400000, 49.082000
3766.210000, 49.232900
3767.010000, 49.384500
3767.810000, 49.536500
3768.620000, 49.688300
3769.420000, 49.839300
3770.220000, 49.990200
3771.030000, 50.141000
3771.830000, 50.292800
3772.630000, 50.444900
3773.440000, 50.597200
3774.240000, 50.749000
3775.050000, 50.899900
3775.850000, 51.051000
3776.650000, 51.202200
3777.460000, 51.355900
3778.260000, 51.510000
3779.060000, 51.665400
3779.870000, 51.820100
3780.670000, 51.974000
3781.470000, 52.126200
3782.280000, 52.277600
3783.080000, 52.427700
3783.880000, 52.577400
3784.690000, 52.726400
3785.490000, 52.875000
3786.300000, 53.023400
3787.100000, 53.172000
3787.900000, 53.320400
3788.710000, 53.468200
3789.510000, 53.614900
3790.310000, 53.759900
3791.120000, 53.902700
3791.920000, 54.044500
3792.720000, 54.184300
3793.530000, 54.323800
3794.330000, 54.462400
3795.130000, 54.600000
3795.940000, 54.736600
3796.740000, 54.870500
3797.540000, 55.003400
3798.350000, 55.133200
3799.150000, 55.262500
3799.960000, 55.390600
3800.760000, 55.517800
3801.560000, 55.644500
3802.370000, 55.768300
3803.170000, 55.891100
3803.970000, 56.009800
3804.780000, 56.126400
3805.580000, 56.239700
3806.380000, 56.349900
3807.190000, 56.458400
3807.990000, 56.563600
3808.790000, 56.668000
3809.600000, 56.769700
3810.400000, 56.869700
3811.200000, 56.967600
3812.010000, 57.062400
3812.810000, 57.155800
3813.620000, 57.244600
3814.420000, 57.332100
3815.220000, 57.415900
3816.030000, 57.497700
3816.830000, 57.577400
3817.630000, 57.653800
3818.440000, 57.728900
3819.240000, 57.798000
3820.040000, 57.865500
3820.850000, 57.928100
3821.650000, 57.988200
3822.450000, 58.045500
3823.260000, 58.099500
3824.060000, 58.152200
3824.870000, 58.200700
3825.670000, 58.248100
3826.470000, 58.292000
3827.280000, 58.333300
3828.080000, 58.371700
3828.880000, 58.405200
3829.690000, 58.436600
3830.490000, 58.460900
3831.290000, 58.483500
3832.100000, 58.500200
3832.900000, 58.514300
3833.700000, 58.524800
3834.510000, 58.532200
3835.310000, 58.538000
3836.110000, 58.540800
3836.920000, 58.542800
3837.720000, 58.542200
3838.530000, 58.540100
3839.330000, 58.535300
3840.130000, 58.526500
3840.940000, 58.514900
3841.740000, 58.496700
3842.540000, 58.476700
3843.350000, 58.450100
3844.150000, 58.422200
3844.950000, 58.390600
3845.760000, 58.357000
3846.560000, 58.321300
3847.360000, 58.281900
3848.170000, 58.241000
3848.970000, 58.193900
3849.770000, 58.145600
3850.580000, 58.092800
3851.380000, 58.038500
3852.190000, 57.981800
3852.990000, 57.922600
3853.790000, 57.861800
3854.600000, 57.796800
3855.400000, 57.730800
3856.200000, 57.660000
3857.010000, 57.588100
3857.810000, 57.513100
3858.610000, 57.436000
3859.420000, 57.356700
3860.220000, 57.273900
3861.020000, 57.189500
3861.830000, 57.101200
3862.630000, 57.012100
3863.440000, 56.920300
3864.240000, 56.827800
3865.040000, 56.733500
3865.850000, 56.637500
3866.650000, 56.540000
3867.450000, 56.439400
3868.260000, 56.337800
3869.060000, 56.231700
3869.860000, 56.124900
3870.670000, 56.014800
3871.470000, 55.904300
3872.270000, 55.792700
3873.080000, 55.680400
3873.880000, 55.567500
3874.680000, 55.452300
3875.490000, 55.336200
3876.290000, 55.215800
3877.100000, 55.094600
3877.900000, 54.970400
3878.700000, 54.845700
3879.510000, 54.720200
3880.310000, 54.594400
3881.110000, 54.468300
3881.920000, 54.341100
3882.720000, 54.213400
3883.520000, 54.083500
3884.330000, 53.953200
3885.130000, 53.821100
3885.930000, 53.688800
3886.740000, 53.555800
3887.540000, 53.422800
3888.350000, 53.289700
3889.150000, 53.156200
3889.950000, 53.022600
3890.760000, 52.888500
3891.560000, 52.754400
3892.360000, 52.620200
3893.170000, 52.485800
3893.970000, 52.350900
3894.770000, 52.214800
3895.580000, 52.076700
3896.380000, 51.936900
3897.180000, 51.795700
3897.990000, 51.654800
3898.790000, 51.513900
3899.590000, 51.374800
3900.400000, 51.235800
3901.200000, 51.096300
3902.010000, 50.956500
3902.810000, 50.815800
3903.610000, 50.675800
3904.420000, 50.536600
3905.220000, 50.398800
3906.020000, 50.261800
3906.830000, 50.124600
3907.630000, 49.987400
3908.430000, 49.849500
3909.240000, 49.711700
3910.040000, 49.574800
3910.840000, 49.438200
3911.650000, 49.302600
3912.450000, 49.167000
3913.250000, 49.031500
3914.060000, 48.896000
3914.860000, 48.760600
3915.670000, 48.625900
3916.470000, 48.491400
3917.270000, 48.357600
3918.080000, 48.223700
3918.880000, 48.089700
3919.680000, 47.955800
3920.490000, 47.822200
3921.290000, 47.689500
3922.090000, 47.558200
3922.900000, 47.428200
3923.700000, 47.299400
3924.500000, 47.171600
3925.310000, 47.044200
3926.110000, 46.917700
3926.920000, 46.791400
3927.720000, 46.667300
3928.520000, 46.543600
3929.330000, 46.422000
3930.130000, 46.300800
3930.930000, 46.180300
3931.740000, 46.059900
3932.540000, 45.939700
3933.340000, 45.820100
3934.150000, 45.700900
3934.950000, 45.583300
3935.750000, 45.466300
3936.560000, 45.351600
3937.360000, 45.237300
3938.160000, 45.124900
3938.970000, 45.012600
3939.770000, 44.900800
3940.580000, 44.789300
3941.380000, 44.678200
3942.180000, 44.568300
3942.990000, 44.459800
3943.790000, 44.352800
3944.590000, 44.246800
3945.400000, 44.141000
3946.200000, 44.035300
3947.000000, 43.930000
3947.810000, 43.824900
3948.610000, 43.722800
3949.410000, 43.621100
3950.220000, 43.522500
3951.020000, 43.424200
3951.820000, 43.327300
3952.630000, 43.230600
3953.430000, 43.134600
3954.240000, 43.039100
3955.040000, 42.944200
3955.840000, 42.850100
3956.650000, 42.756400
3957.450000, 42.663700
3958.250000, 42.571600
3959.060000, 42.481100
3959.860000, 42.391000
3960.660000, 42.303400
3961.470000, 42.216000
3962.270000, 42.130700
3963.070000, 42.045800
3963.880000, 41.962100
3964.680000, 41.878600
3965.490000, 41.795600
3966.290000, 41.712900
3967.090000, 41.630600
3967.900000, 41.549300
3968.700000, 41.469000
3969.500000, 41.390900
3970.310000, 41.314000
3971.110000, 41.239500
3971.910000, 41.165600
3972.720000, 41.092900
3973.520000, 41.020300
3974.320000, 40.948100
3975.130000, 40.876100
3975.930000, 40.804800
3976.730000, 40.733900
3977.540000, 40.664300
3978.340000, 40.595500
3979.150000, 40.528400
3979.950000, 40.462100
3980.750000, 40.397100
3981.560000, 40.332500
3982.360000, 40.268400
3983.160000, 40.205100
3983.970000, 40.142300
3984.770000, 40.080500
3985.570000, 40.019300
3986.380000, 39.958800
3987.180000, 39.898400
3987.980000, 39.839100
3988.790000, 39.779800
3989.590000, 39.723200
3990.390000, 39.666900
3991.200000, 39.613300
3992.000000, 39.560000
3992.810000, 39.508000
3993.610000, 39.456300
3994.410000, 39.405300
3995.220000, 39.354700
3996.020000, 39.304800
3996.820000, 39.255500
3997.630000, 39.207000
3998.430000, 39.159100
3999.230000, 39.111800
4000.040000, 39.065000
4000.840000, 39.018600
4001.640000, 38.973200
4002.450000, 38.928300
4003.250000, 38.885200
4004.060000, 38.842700
4004.860000, 38.802100
4005.660000, 38.761800
4006.470000, 38.722600
4007.270000, 38.683500
4008.070000, 38.645000
4008.880000, 38.606500
4009.680000, 38.568600
4010.480000, 38.530800
4011.290000, 38.494100
4012.090000, 38.457600
4012.890000, 38.422300
4013.700000, 38.387200
4014.500000, 38.352900
4015.300000, 38.319100
4016.110000, 38.286300
4016.910000, 38.254300
4017.720000, 38.224100
4018.520000, 38.194700
4019.320000, 38.166600
4020.130000, 38.138600
4020.930000, 38.110600
4021.730000, 38.082600
4022.540000, 38.054600
4023.340000, 38.027600
4024.140000, 38.001500
4024.950000, 37.977600
4025.750000, 37.954800
4026.550000, 37.933400
4027.360000, 37.912500
4028.160000, 37.891300
4028.970000, 37.870100
4029.770000, 37.848600
4030.570000, 37.827000
4031.380000, 37.806200
4032.180000, 37.785600
4032.980000, 37.766800
4033.790000, 37.748100
4034.590000, 37.731600
4035.390000, 37.715100
4036.200000, 37.699800
4037.000000, 37.684400
4037.800000, 37.668800
4038.610000, 37.653300
4039.410000, 37.638100
4040.210000, 37.623200
4041.020000, 37.609600
4041.820000, 37.596400
4042.630000, 37.584500
4043.430000, 37.572900
4044.230000, 37.562400
4045.040000, 37.552500
4045.840000, 37.544200
4046.640000, 37.536400
4047.450000, 37.529700
4048.250000, 37.523100
4049.050000, 37.516600
4049.860000, 37.510400
4050.660000, 37.504500
4051.460000, 37.499300
4052.270000, 37.495200
4053.070000, 37.491800
4053.870000, 37.489400
4054.680000, 37.487000
4055.480000, 37.484800
4056.290000, 37.482500
4057.090000, 37.480300
4057.890000, 37.478700
4058.700000, 37.477700
4059.500000, 37.477700
4060.300000, 37.478500
4061.110000, 37.479900
4061.910000, 37.481800
4062.710000, 37.484200
4063.520000, 37.487000
4064.320000, 37.490600
4065.120000, 37.494600
4065.930000, 37.499400
4066.730000, 37.504700
4067.540000, 37.510400
4068.340000, 37.516400
4069.140000, 37.523000
4069.950000, 37.529700
4070.750000, 37.537100
4071.550000, 37.544800
4072.360000, 37.553200
4073.160000, 37.562100
4073.960000, 37.572000
4074.770000, 37.582400
4075.570000, 37.593400
4076.370000, 37.604800
4077.180000, 37.615900
4077.980000, 37.626900
4078.780000, 37.637600
4079.590000, 37.648200
4080.390000, 37.659700
4081.200000, 37.671600
4082.000000, 37.685100
4082.800000, 37.699300
4083.610000, 37.714700
4084.410000, 37.730600
4085.210000, 37.746900
4086.020000, 37.763400
4086.820000, 37.780100
4087.620000, 37.796900
4088.430000, 37.813900
4089.230000, 37.830800
4090.030000, 37.848100
4090.840000, 37.865600
4091.640000, 37.884000
4092.440000, 37.902800
4093.250000, 37.922200
4094.050000, 37.941900
4094.860000, 37.961300
4095.660000, 37.980600
4096.460000, 37.999700
4097.270000, 38.018700
4098.070000, 38.039000
4098.870000, 38.060000
4099.680000, 38.083000
4100.480000, 38.107100
4101.280000, 38.131700
4102.090000, 38.156700
4102.890000, 38.181000
4103.690000, 38.204800
4104.500000, 38.228500
4105.300000, 38.252200
4106.110000, 38.276700
4106.910000, 38.301700
4107.710000, 38.327600
4108.520000, 38.354200
4109.320000, 38.381300
4110.120000, 38.409000
4110.930000, 38.436500
4111.730000, 38.463900
4112.530000, 38.490900
4113.340000, 38.517600
4114.140000, 38.544500
4114.940000, 38.571700
4115.750000, 38.599300
4116.550000, 38.627600
4117.350000, 38.655800
4118.160000, 38.684000
4118.960000, 38.712100
4119.770000, 38.740000
4120.570000, 38.767800
4121.370000, 38.795800
4122.180000, 38.823800
4122.980000, 38.851800
4123.780000, 38.879700
4124.590000, 38.907500
4125.390000, 38.935400
4126.190000, 38.963900
4127.000000, 38.992400
4127.800000, 39.022100
4128.600000, 39.051900
4129.410000, 39.082200
4130.210000, 39.112400
4131.020000, 39.142100
4131.820000, 39.171700
4132.620000, 39.200200
4133.430000, 39.228700
4134.230000, 39.256700
4135.030000, 39.284700
4135.840000, 39.313500
4136.640000, 39.342500
4137.440000, 39.372400
4138.250000, 39.402500
4139.050000, 39.432100
4139.850000, 39.461600
4140.660000, 39.489600
4141.460000, 39.517100
4142.260000, 39.544100
4143.070000, 39.570700
4143.870000, 39.597500
4144.680000, 39.624300
4145.480000, 39.651100
4146.280000, 39.677900
4147.090000, 39.704500
4147.890000, 39.730800
4148.690000, 39.756900
4149.500000, 39.782600
4150.300000, 39.807900
4151.100000, 39.832500
4151.910000, 39.856700
4152.710000, 39.879700
4153.510000, 39.902400
4154.320000, 39.923600
4155.120000, 39.944600
4155.920000, 39.964100
4156.730000, 39.983600
4157.530000, 40.002600
4158.340000, 40.021600
4159.140000, 40.040900
4159.940000, 40.060100
4160.750000, 40.078100
4161.550000, 40.096000
4162.350000, 40.111000
4163.160000, 40.125400
4163.960000, 40.138000
4164.760000, 40.149900
4165.570000, 40.162100
4166.370000, 40.174500
4167.170000, 40.187300
4167.980000, 40.200300
4168.780000, 40.212400
4169.590000, 40.223500
4170.390000, 40.233200
4171.190000, 40.240800
4172.000000, 40.247800
4172.800000, 40.253100
4173.600000, 40.258200
4174.410000, 40.262500
4175.210000, 40.266500
4176.010000, 40.269000
4176.820000, 40.271300
4177.620000, 40.270000
4178.420000, 40.268700
4179.230000, 40.263800
4180.030000, 40.258700
4180.830000, 40.252000
4181.640000, 40.245100
4182.440000, 40.238200
4183.250000, 40.231300
4184.050000, 40.225200
4184.850000, 40.219400
4185.660000, 40.214600
4186.460000, 40.210600
4187.260000, 40.207300
4188.070000, 40.204800
4188.870000, 40.203100
4189.670000, 40.202600
4190.480000, 40.203300
4191.280000, 40.207500
4192.080000, 40.212900
4192.890000, 40.224900
4193.690000, 40.237100
4194.490000, 40.257300
4195.300000, 40.277500
4196.100000, 40.303900
4196.910000, 40.330700
4197.710000, 40.361600
4198.510000, 40.393500
4199.320000, 40.427100
4200.120000, 40.461400
4200.920000, 40.495000
4201.730000, 40.528200
4202.530000, 40.560400
4203.330000, 40.591300
4204.140000, 40.622200
4204.940000, 40.652900
4205.740000, 40.684100
4206.550000, 40.717200
4207.350000, 40.750600
4208.160000, 40.787000
4208.960000, 40.823500
4209.760000, 40.863700
4210.570000, 40.904100
4211.370000, 40.948100
4212.170000, 40.992800
4212.980000, 41.039500
4213.780000, 41.086900
4214.580000, 41.133900
4215.390000, 41.180600
4216.190000, 41.226300
4216.990000, 41.270800
4217.800000, 41.314500
4218.600000, 41.356700
4219.400000, 41.397700
4220.210000, 41.434000
4221.010000, 41.469700
4221.820000, 41.494900
4222.620000, 41.520000
4223.420000, 41.533100
4224.230000, 41.545100
4225.030000, 41.546300
4225.830000, 41.544400
4226.640000, 41.531400
4227.440000, 41.511700
4228.240000, 41.480600
4229.050000, 41.437200
4229.850000, 41.384500
4230.650000, 41.313900
4231.460000, 41.238800
4232.260000, 41.144800
4233.060000, 41.050500
4233.870000, 40.945600
4234.670000, 40.840700
4235.480000, 40.723500
4236.280000, 40.604800
4237.080000, 40.457900
4237.890000, 40.300800
4238.690000, 40.119900
4239.490000, 39.921800
4240.300000, 39.714000
4241.100000, 39.493000
4241.900000, 39.264400
4242.710000, 39.014800
4243.510000, 38.761100
4244.310000, 38.472000
4245.120000, 38.183000
4245.920000, 37.878000
4246.730000, 37.572200
4247.530000, 37.272700
4248.330000, 36.974900
4249.140000, 36.675000
4249.940000, 36.373600
4250.740000, 36.062600
4251.550000, 35.739900
4252.350000, 35.414100
4253.150000, 35.080400
4253.960000, 34.750500
4254.760000, 34.450300
4255.560000, 34.150200
4256.370000, 33.925300
4257.170000, 33.705500
4257.970000, 33.553000
4258.780000, 33.421300
4259.580000, 33.323100
4260.390000, 33.248400
4261.190000, 33.175900
4261.990000, 33.106600
4262.800000, 33.028900
4263.600000, 32.923600
4264.400000, 32.816100
4265.210000, 32.667500
4266.010000, 32.519000
4266.810000, 32.344500
4267.620000, 32.166100
4268.420000, 31.970100
4269.220000, 31.766000
4270.030000, 31.545800
4270.830000, 31.309300
4271.640000, 31.065500
4272.440000, 30.805100
4273.240000, 30.546100
4274.050000, 30.297100
4274.850000, 30.048200
4275.650000, 29.843100
4276.460000, 29.641600
4277.260000, 29.470500
4278.060000, 29.310700
4278.870000, 29.150900
4279.670000, 28.991100
4280.470000, 28.824600
4281.280000, 28.644900
4282.080000, 28.464500
4282.880000, 28.279100
4283.690000, 28.093800
4284.490000, 27.906400
4285.300000, 27.718900
4286.100000, 27.522800
4286.900000, 27.323600
4287.710000, 27.117700
4288.510000, 26.906000
4289.310000, 26.693100
4290.120000, 26.477400
4290.920000, 26.262200
4291.720000, 26.049800
4292.530000, 25.837500
4293.330000, 25.626800
4294.130000, 25.416400
4294.940000, 25.203100
4295.740000, 24.988700
4296.540000, 24.772500
4297.350000, 24.554400
4298.150000, 24.337700
4298.960000, 24.124600
4299.760000, 23.912000
4300.560000, 23.707200
4301.370000, 23.502500
4302.170000, 23.298800
4302.970000, 23.095400
4303.780000, 22.890200
4304.580000, 22.684100
4305.380000, 22.477600
4306.190000, 22.270500
4306.990000, 22.063300
4307.790000, 21.855600
4308.600000, 21.648000
4309.400000, 21.441000
4310.210000, 21.234100
4311.010000, 21.030500
4311.810000, 20.828400
4312.620000, 20.629700
4313.420000, 20.434900
4314.220000, 20.241900
4315.030000, 20.054600
4315.830000, 19.867300
4316.630000, 19.686900
4317.440000, 19.506500
4318.240000, 19.333200
4319.040000, 19.162100
4319.850000, 18.995800
4320.650000, 18.833900
4321.450000, 18.673200
4322.260000, 18.515600
4323.060000, 18.358100
4323.870000, 18.202400
4324.670000, 18.046700
4325.470000, 17.892600
4326.280000, 17.739000
4327.080000, 17.586300
4327.880000, 17.434400
4328.690000, 17.282900
4329.490000, 17.132500
4330.290000, 16.982300
4331.100000, 16.834600
4331.900000, 16.687000
4332.700000, 16.542100
4333.510000, 16.397900
4334.310000, 16.255200
4335.110000, 16.113700
4335.920000, 15.973300
4336.720000, 15.835300
4337.530000, 15.697600
4338.330000, 15.565600
4339.130000, 15.433600
4339.940000, 15.307300
4340.740000, 15.182400
4341.540000, 15.060600
4342.350000, 14.941500
4343.150000, 14.823400
4343.950000, 14.708000
4344.760000, 14.592700
4345.560000, 14.479500
4346.360000, 14.366400
4347.170000, 14.254900
4347.970000, 14.144100
4348.780000, 14.035100
4349.580000, 13.928300
4350.380000, 13.822400
4351.190000, 13.719900
4351.990000, 13.617400
4352.790000, 13.517500
4353.600000, 13.417800
4354.400000, 13.319800
4355.200000, 13.222800
4356.010000, 13.127000
4356.810000, 13.033200
4357.610000, 12.939800
4358.420000, 12.849600
4359.220000, 12.759400
4360.020000, 12.671800
4360.830000, 12.584700
4361.630000, 12.499200
4362.440000, 12.415100
4363.240000, 12.331900
4364.040000, 12.251500
4364.850000, 12.171100
4365.650000, 12.094400
4366.450000, 12.018000
4367.260000, 11.943700
4368.060000, 11.870400
4368.860000, 11.798100
4369.670000, 11.727600
4370.470000, 11.657200
4371.270000, 11.589100
4372.080000, 11.521000
4372.880000, 11.454000
4373.690000, 11.387400
4374.490000, 11.321700
4375.290000, 11.256900
4376.100000, 11.193000
4376.900000, 11.132400
4377.700000, 11.071800
4378.510000, 11.016000
4379.310000, 10.960600
4380.110000, 10.908300
4380.920000, 10.857700
4381.720000, 10.808300
4382.520000, 10.761400
4383.330000, 10.714500
4384.130000, 10.670000
4384.930000, 10.625500
4385.740000, 10.582100
4386.540000, 10.539200
4387.350000, 10.496800
4388.150000, 10.455200
4388.950000, 10.413800
4389.760000, 10.373300
4390.560000, 10.332900
4391.360000, 10.293800
4392.170000, 10.255100
4392.970000, 10.217800
4393.770000, 10.182300
4394.580000, 10.147400
4395.380000, 10.116000
4396.180000, 10.084600
4396.990000, 10.055800
4397.790000, 10.027600
4398.590000, 10.000200
4399.400000, 9.973620
4400.200000, 9.947240
4401.010000, 9.921600
4401.810000, 9.895980
4402.610000, 9.870960
4403.420000, 9.846060
4404.220000, 9.821880
4405.020000, 9.798350
4405.830000, 9.775360
4406.630000, 9.754440
4407.430000, 9.733530
4408.240000, 9.715070
4409.040000, 9.696960
4409.840000, 9.680010
4410.650000, 9.664040
4411.450000, 9.648480
4412.260000, 9.634510
4413.060000, 9.620540
4413.860000, 9.608470
4414.670000, 9.596690
4415.470000, 9.586000
4416.270000, 9.576280
4417.080000, 9.566890
4417.880000, 9.558900
4418.680000, 9.550910
4419.490000, 9.544330
4420.290000, 9.538010
4421.090000, 9.532660
4421.900000, 9.528250
4422.700000, 9.524140
4423.500000, 9.521550
4424.310000, 9.518970
4425.110000, 9.517660
4425.920000, 9.516650
4426.720000, 9.516570
4427.520000, 9.517560
4428.330000, 9.518830
4429.130000, 9.522410
4429.930000, 9.525990
4430.740000, 9.531570
4431.540000, 9.537790
4432.340000, 9.544920
4433.150000, 9.553420
4433.950000, 9.561970
4434.750000, 9.572070
4435.560000, 9.582150
4436.360000, 9.593210
4437.160000, 9.604720
4437.970000, 9.616960
4438.770000, 9.630770
4439.580000, 9.644570
4440.380000, 9.660580
4441.180000, 9.676680
4441.990000, 9.693230
4442.790000, 9.710080
4443.590000, 9.727090
4444.400000, 9.744650
4445.200000, 9.762200
4446.000000, 9.781900
4446.810000, 9.801970
4447.610000, 9.823380
4448.410000, 9.846260
4449.220000, 9.869290
4450.020000, 9.893690
4450.830000, 9.918090
4451.630000, 9.943320
4452.430000, 9.968870
4453.240000, 9.995000
4454.040000, 10.022200
4454.840000, 10.049400
4455.650000, 10.078800
4456.450000, 10.108200
4457.250000, 10.139000
4458.060000, 10.170700
4458.860000, 10.202800
4459.660000, 10.236500
4460.470000, 10.270100
4461.270000, 10.305300
4462.070000, 10.340700
4462.880000, 10.376900
4463.680000, 10.414100
4464.490000, 10.451300
4465.290000, 10.490000
4466.090000, 10.528600
4466.900000, 10.568100
4467.700000, 10.608000
4468.500000, 10.648300
4469.310000, 10.689800
4470.110000, 10.731300
4470.910000, 10.774200
4471.720000, 10.817300
4472.520000, 10.861200
4473.320000, 10.906100
4474.130000, 10.950900
4474.930000, 10.997400
4475.730000, 11.043900
4476.540000, 11.091700
4477.340000, 11.140100
4478.150000, 11.189100
4478.950000, 11.239700
4479.750000, 11.290200
4480.560000, 11.342000
4481.360000, 11.394100
4482.160000, 11.446400
4482.970000, 11.499200
4483.770000, 11.552000
4484.570000, 11.605600
4485.380000, 11.659200
4486.180000, 11.713800
4486.980000, 11.769100
4487.790000, 11.824700
4488.590000, 11.881800
4489.400000, 11.938900
4490.200000, 11.996700
4491.000000, 12.054800
4491.810000, 12.113100
4492.610000, 12.172000
4493.410000, 12.230800
4494.220000, 12.291300
4495.020000, 12.352000
4495.820000, 12.413600
4496.630000, 12.476000
4497.430000, 12.538500
4498.230000, 12.601100
4499.040000, 12.663700
4499.840000, 12.726100
4500.640000, 12.788300
4501.450000, 12.850700
4502.250000, 12.913700
4503.060000, 12.976700
4503.860000, 13.040800
4504.660000, 13.105100
4505.470000, 13.169700
4506.270000, 13.234700
4507.070000, 13.299700
4507.880000, 13.365400
4508.680000, 13.431100
4509.480000, 13.497500
4510.290000, 13.564500
4511.090000, 13.631500
4511.890000, 13.699200
4512.700000, 13.766800
4513.500000, 13.833900
4514.310000, 13.900600
4515.110000, 13.967100
4515.910000, 14.033000
4516.720000, 14.098800
4517.520000, 14.165000
4518.320000, 14.231300
4519.130000, 14.297900
4519.930000, 14.365100
4520.730000, 14.432400
4521.540000, 14.499800
4522.340000, 14.567200
4523.140000, 14.634700
4523.950000, 14.702300
4524.750000, 14.770000
4525.550000, 14.838100
4526.360000, 14.906200
4527.160000, 14.974300
4527.970000, 15.042100
4528.770000, 15.109900
4529.570000, 15.176500
4530.380000, 15.243100
4531.180000, 15.308900
4531.980000, 15.374100
4532.790000, 15.439300
4533.590000, 15.502700
4534.390000, 15.566100
4535.200000, 15.628200
4536.000000, 15.689300
4536.800000, 15.750200
4537.610000, 15.810000
4538.410000, 15.869700
4539.210000, 15.930000
4540.020000, 15.990500
4540.820000, 16.051100
4541.630000, 16.112500
4542.430000, 16.173900
4543.230000, 16.234300
4544.040000, 16.294300
4544.840000, 16.353800
4545.640000, 16.411200
4546.450000, 16.468600
4547.250000, 16.524900
4548.050000, 16.580800
4548.860000, 16.636400
4549.660000, 16.691300
4550.460000, 16.746300
4551.270000, 16.800000
4552.070000, 16.853200
4552.880000, 16.905800
4553.680000, 16.956600
4554.480000, 17.007400
4555.290000, 17.055900
4556.090000, 17.103900
4556.890000, 17.151200
4557.700000, 17.197100
4558.500000, 17.243000
4559.300000, 17.288300
4560.110000, 17.333400
4560.910000, 17.378200
4561.710000, 17.422400
4562.520000, 17.466600
4563.320000, 17.508900
4564.120000, 17.550800
4564.930000, 17.591600
4565.730000, 17.630500
4566.540000, 17.669300
4567.340000, 17.705900
4568.140000, 17.742100
4568.950000, 17.777400
4569.750000, 17.810900
4570.550000, 17.844300
4571.360000, 17.875000
4572.160000, 17.905100
4572.960000, 17.934200
4573.770000, 17.961000
4574.570000, 17.987800
4575.370000, 18.013000
4576.180000, 18.037800
4576.980000, 18.062100
4577.780000, 18.085400
4578.590000, 18.108800
4579.390000, 18.130300
4580.200000, 18.151300
4581.000000, 18.171300
4581.800000, 18.188600
4582.610000, 18.205900
4583.410000, 18.220400
4584.210000, 18.233700
4585.020000, 18.246400
4585.820000, 18.256600
4586.620000, 18.266700
4587.430000, 18.274900
4588.230000, 18.282200
4589.030000, 18.288900
4589.840000, 18.292700
4590.640000, 18.296600
4591.450000, 18.298300
4592.250000, 18.298800
4593.050000, 18.299000
4593.860000, 18.297200
4594.660000, 18.295300
4595.460000, 18.292100
4596.270000, 18.287800
4597.070000, 18.283300
4597.870000, 18.275500
4598.680000, 18.267600
4599.480000, 18.258100
4600.280000, 18.247000
4601.090000, 18.235800
4601.890000, 18.222300
4602.690000, 18.208700
4603.500000, 18.193700
4604.300000, 18.176900
4605.110000, 18.160100
4605.910000, 18.139000
4606.710000, 18.117300
4607.520000, 18.094200
4608.320000, 18.067900
4609.120000, 18.041700
4609.930000, 18.013500
4610.730000, 17.984600
4611.530000, 17.955200
4612.340000, 17.924000
4613.140000, 17.892800
4613.940000, 17.859500
4614.750000, 17.825200
4615.550000, 17.790500
4616.360000, 17.753700
4617.160000, 17.716800
4617.960000, 17.679200
4618.770000, 17.640900
4619.570000, 17.602700
4620.370000, 17.562600
4621.180000, 17.522600
4621.980000, 17.481100
4622.780000, 17.437600
4623.590000, 17.394100
4624.390000, 17.346600
4625.190000, 17.298600
4626.000000, 17.249300
4626.800000, 17.197100
4627.600000, 17.145000
4628.410000, 17.091100
4629.210000, 17.036600
4630.020000, 16.981800
4630.820000, 16.925800
4631.620000, 16.869800
4632.430000, 16.812600
4633.230000, 16.754600
4634.030000, 16.696600
4634.840000, 16.636100
4635.640000, 16.575700
4636.440000, 16.513900
4637.250000, 16.450300
4638.050000, 16.386800
4638.850000, 16.319900
4639.660000, 16.252600
4640.460000, 16.184500
4641.260000, 16.114300
4642.070000, 16.044200
4642.870000, 15.973500
4643.680000, 15.902600
4644.480000, 15.831600
4645.280000, 15.759600
4646.090000, 15.687600
4646.890000, 15.614000
4647.690000, 15.538900
4648.500000, 15.463900
4649.300000, 15.386100
4650.100000, 15.308100
4650.910000, 15.229300
4651.710000, 15.149100
4652.510000, 15.068800
4653.320000, 14.987200
4654.120000, 14.905000
4654.930000, 14.822700
4655.730000, 14.738700
4656.530000, 14.654800
4657.340000, 14.570100
4658.140000, 14.484600
4658.940000, 14.399200
4659.750000, 14.312000
4660.550000, 14.224800
4661.350000, 14.137000
4662.160000, 14.048000
4662.960000, 13.958900
4663.760000, 13.868700
4664.570000, 13.778100
4665.370000, 13.687400
4666.170000, 13.595500
4666.980000, 13.503600
4667.780000, 13.411300
4668.590000, 13.318500
4669.390000, 13.225700
4670.190000, 13.132300
4671.000000, 13.038700
4671.800000, 12.945000
4672.600000, 12.850400
4673.410000, 12.755900
4674.210000, 12.660400
4675.010000, 12.564400
4675.820000, 12.468400
4676.620000, 12.371300
4677.420000, 12.274200
4678.230000, 12.177000
4679.030000, 12.079300
4679.830000, 11.981700
4680.640000, 11.882900
4681.440000, 11.783800
4682.250000, 11.684300
4683.050000, 11.582600
4683.850000, 11.480900
4684.660000, 11.378400
4685.460000, 11.274900
4686.260000, 11.171500
4687.070000, 11.068300
4687.870000, 10.965200
4688.670000, 10.862300
4689.480000, 10.759900
4690.280000, 10.657500
4691.080000, 10.554600
4691.890000, 10.451300
4692.690000, 10.348100
4693.500000, 10.243200
4694.300000, 10.138300
4695.100000, 10.032900
4695.910000, 9.926660
4696.710000, 9.820440
4697.510000, 9.713480
4698.320000, 9.606170
4699.120000, 9.498890
4699.920000, 9.390960
4700.730000, 9.283070
4701.530000, 9.175540
4702.330000, 9.068630
4703.140000, 8.961750
4703.940000, 8.856020
4704.740000, 8.750790
4705.550000, 8.645600
4706.350000, 8.540590
4707.160000, 8.435620
4707.960000, 8.330170
4708.760000, 8.223960
4709.570000, 8.117780
4710.370000, 8.010860
4711.170000, 7.903680
4711.980000, 7.796550
4712.780000, 7.689440
4713.580000, 7.582380
4714.390000, 7.475460
4715.190000, 7.368730
4715.990000, 7.262040
4716.800000, 7.155690
4717.600000, 7.049490
4718.410000, 6.943430
4719.210000, 6.838700
4720.010000, 6.734000
4720.820000, 6.630000
4721.620000, 6.527050
4722.420000, 6.424120
4723.230000, 6.321520
4724.030000, 6.219070
4724.830000, 6.116620
4725.640000, 6.013440
4726.440000, 5.910300
4727.240000, 5.806970
4728.050000, 5.703280
4728.850000, 5.599630
4729.650000, 5.496420
4730.460000, 5.393420
4731.260000, 5.290460
4732.070000, 5.189290
4732.870000, 5.088160
4733.670000, 4.987900
4734.480000, 4.889570
4735.280000, 4.791260
4736.080000, 4.694990
4736.890000, 4.599960
4737.690000, 4.504970
4738.490000, 4.412150
4739.300000, 4.319530
4740.100000, 4.227150
4740.900000, 4.135480
4741.710000, 4.043850
4742.510000, 3.952750
4743.310000, 3.862120
4744.120000, 3.771520
4744.920000, 3.682830
4745.730000, 3.594550
4746.530000, 3.506730
4747.330000, 3.421730
4748.140000, 3.336770
4748.940000, 3.253200
4749.740000, 3.171480
4750.550000, 3.089780
4751.350000, 3.010140
4752.150000, 2.931300
4752.960000, 2.852520
4753.760000, 2.776610
4754.560000, 2.700720
4755.370000, 2.625760
4756.170000, 2.552930
4756.980000, 2.480130
4757.780000, 2.409000
4758.580000, 2.339050
4759.390000, 2.269120
4760.190000, 2.201670
4760.990000, 2.134620
4761.800000, 2.068060
4762.600000, 2.004250
4763.400000, 1.940450
4764.210000, 1.878090
4765.010000, 1.817650
4765.810000, 1.757220
4766.620000, 1.699020
4767.420000, 1.641780
4768.220000, 1.584550
4769.030000, 1.530470
4769.830000, 1.476470
4770.640000, 1.423390
4771.440000, 1.373070
4772.240000, 1.322760
4773.050000, 1.274320
4773.850000, 1.227650
4774.650000, 1.181000
4775.460000, 1.136630
4776.260000, 1.092930
4777.060000, 1.049370
4777.870000, 1.009010
4778.670000, 0.968650
4779.470000, 0.929620
4780.280000, 0.893590
4781.080000, 0.857570
4781.880000, 0.823500
4782.690000, 0.790950
4783.490000, 0.758420
4784.300000, 0.727500
4785.100000, 0.696950
4785.900000, 0.666530
4786.710000, 0.637770
4787.510000, 0.609020
4788.310000, 0.580850
4789.120000, 0.553930
4789.920000, 0.527010
4790.720000, 0.501290
4791.530000, 0.476480
4792.330000, 0.451680
4793.130000, 0.429320
4793.940000, 0.407530
4794.740000, 0.385910
4795.550000, 0.367110
4796.350000, 0.348330
4797.150000, 0.330130
4797.960000, 0.313350
4798.760000, 0.296570
4799.560000, 0.280670
4800.370000, 0.265540
4801.170000, 0.250420
4801.970000, 0.237010
4802.780000, 0.224130
4803.580000, 0.211260
4804.380000, 0.200970
4805.190000, 0.190680
4805.990000, 0.180790
4806.790000, 0.172230
4807.600000, 0.163680
4808.400000, 0.155430
4809.210000, 0.147530
4810.010000, 0.139630
4810.810000, 0.132220
4811.620000, 0.125040
4812.420000, 0.117870
4813.220000, 0.111590
4814.030000, 0.105410
4814.830000, 0.099280
4815.630000, 0.093530
4816.440000, 0.087790
4817.240000, 0.082080
4818.040000, 0.076430
4818.850000, 0.070790
4819.650000, 0.065360
4820.450000, 0.060110
4821.260000, 0.054870
4822.060000, 0.050160
4822.870000, 0.045630
4823.670000, 0.041100
4824.470000, 0.037840
4825.280000, 0.034610
4826.080000, 0.031680
4826.880000, 0.030080
4827.690000, 0.028470
4828.490000, 0.027160
4829.290000, 0.026320
4830.100000, 0.025470
4830.900000, 0.024470
4831.700000, 0.023370
4832.510000, 0.022270
4833.310000, 0.020930
4834.120000, 0.019510
4834.920000, 0.018100
4835.720000, 0.016890
4836.530000, 0.015680
4837.330000, 0.014600
4838.130000, 0.014100
4838.940000, 0.013600
4839.740000, 0.013270
4840.540000, 0.013240
4841.350000, 0.013200
4842.150000, 0.012840
4842.950000, 0.012220
4843.760000, 0.011610
4844.560000, 0.010270
4845.360000, 0.008670
4846.170000, 0.007080
4846.970000, 0.005330
4847.780000, 0.003560
4848.580000, 0.001910
4849.380000, 0.001210
4850.190000, 0.000505
4850.990000, 0.000193
4851.790000, 0.000871
4852.600000, 0.001550
4853.400000, 0.002400
4854.200000, 0.003460
4855.010000, 0.004520
4855.810000, 0.004980
4856.610000, 0.005080
4857.420000, 0.005190
4858.220000, 0.004900
4859.030000, 0.004520
4859.830000, 0.004130
4860.630000, 0.004410
4861.440000, 0.004710
4862.240000, 0.005070
4863.040000, 0.005800
4863.850000, 0.006530
4864.650000, 0.007100
4865.450000, 0.007290
4866.260000, 0.007470
4867.060000, 0.007400
4867.860000, 0.007020
4868.670000, 0.006640
4869.470000, 0.006210
4870.270000, 0.005730
4871.080000, 0.005260
4871.880000, 0.004950
4872.690000, 0.004690
4873.490000, 0.004430
4874.290000, 0.004580
4875.100000, 0.004770
4875.900000, 0.004970
4876.700000, 0.005370
4877.510000, 0.005770
4878.310000, 0.006100
4879.110000, 0.006180
4879.920000, 0.006270
4880.720000, 0.006250
4881.520000, 0.006050
4882.330000, 0.005850
4883.130000, 0.005580
4883.930000, 0.005210
4884.740000, 0.004850
4885.540000, 0.004290
4886.350000, 0.003610
4887.150000, 0.002940
4887.950000, 0.002310
4888.760000, 0.001690
4889.560000, 0.001070
4890.360000, 0.001230
4891.170000, 0.001470
4891.970000, 0.001740
4892.770000, 0.002610
4893.580000, 0.003490
4894.380000, 0.004240
4895.180000, 0.004280
4895.990000, 0.004330
4896.790000, 0.004020
4897.600000, 0.002800
4898.400000, 0.001580
4899.200000, 0.000726
4900.010000, 0.000434
4900.810000, 0.000142
4901.610000, 0.000062
4902.420000, 0.000178
4903.220000, 0.000295
4904.020000, 0.001140
4904.830000, 0.002400
4905.630000, 0.003660
4906.430000, 0.004300
4907.240000, 0.004730
4908.040000, 0.005170
4908.840000, 0.005070
4909.650000, 0.004880
4910.450000, 0.004690
4911.260000, 0.004740
4912.060000, 0.004800
4912.860000, 0.004880
4913.670000, 0.005250
4914.470000, 0.005610
4915.270000, 0.005960
4916.080000, 0.006240
4916.880000, 0.006510
4917.680000, 0.006700
4918.490000, 0.006640
4919.290000, 0.006590
4920.090000, 0.006490
4920.900000, 0.006310
4921.700000, 0.006130
4922.500000, 0.006050
4923.310000, 0.006090
4924.110000, 0.006130
4924.920000, 0.006090
4925.720000, 0.005980
4926.520000, 0.005880
4927.330000, 0.005330
4928.130000, 0.004530
4928.930000, 0.003730
4929.740000, 0.002730
4930.540000, 0.001670
4931.340000, 0.000604
4932.150000, 0.000293
4932.950000, 0.000154
4933.750000, 0.000016
4934.560000, 0.000001
4935.360000, 0.000001
4936.170000, 0.000001
4936.970000, 0.000001
4937.770000, 0.000001
4938.580000, 0.000001
4939.380000, 0.000001
4940.180000, 0.000001
4940.990000, 0.000001
4941.790000, 0.000001
4942.590000, 0.000001
4943.400000, 0.000001
4944.200000, 0.000001
4945.000000, 0.000001
4945.810000, 0.000001
4946.610000, 0.000001
4947.410000, 0.000001
4948.220000, 0.000001
4949.020000, 0.000001
4949.830000, 0.000001
4950.630000, 0.000001
4951.430000, 0.000001
4952.240000, 0.000001
4953.040000, 0.000001
4953.840000, 0.000001
4954.650000, 0.000001
4955.450000, 0.000001
4956.250000, 0.000001
4957.060000, 0.000001
4957.860000, 0.000460
4958.660000, 0.001300
4959.470000, 0.002150
4960.270000, 0.002630
4961.080000, 0.002860
4961.880000, 0.003090
4962.680000, 0.002810
4963.490000, 0.002250
4964.290000, 0.001690
4965.090000, 0.001160
4965.900000, 0.000650
4966.700000, 0.000141
4967.500000, 0.000001
4968.310000, 0.000001
4969.110000, 0.000001
4969.910000, 0.000001
4970.720000, 0.000001
4971.520000, 0.000001
4972.320000, 0.000001
4973.130000, 0.000001
4973.930000, 0.000001
4974.740000, 0.000254
4975.540000, 0.000558
4976.340000, 0.000862
4977.150000, 0.001970
4977.950000, 0.003200
4978.750000, 0.004440
4979.560000, 0.005910
4980.360000, 0.007410
4981.160000, 0.008920
4981.970000, 0.009730
4982.770000, 0.010480
4983.570000, 0.011230
4984.380000, 0.011310
4985.180000, 0.011340
4985.980000, 0.011370
4986.790000, 0.011020
4987.590000, 0.010640
4988.400000, 0.010270
4989.200000, 0.009080
4990.000000, 0.007860
4990.810000, 0.006640
4991.610000, 0.004480
4992.410000, 0.002300
4993.220000, 0.000119
4994.020000, 0.000063
4994.820000, 0.000032
4995.630000, 0.000001
4996.430000, 0.000001
4997.230000, 0.000001
4998.040000, 0.000001
4998.840000, 0.000001
4999.650000, 0.000001
5000.000000, 0.000001
