# Wavelength  (nm), Transmission (%)
200.000000, 0.008459
201.000000, 0.067338
202.000000, 0.073703
203.000000, 0.040363
204.000000, 0.024550
205.000000, 0.036134
206.000000, 0.038780
207.000000, 0.046512
208.000000, 0.033685
209.000000, 0.021448
210.000000, 0.028585
211.000000, 0.026697
212.000000, 0.015730
213.000000, 0.031450
214.000000, 0.025176
215.000000, 0.029640
216.000000, 0.020920
217.000000, 0.016698
218.000000, 0.019032
219.000000, 0.017209
220.000000, 0.017081
221.000000, 0.020274
222.000000, 0.014770
223.000000, 0.010851
224.000000, 0.008109
225.000000, 0.008025
226.000000, 0.008879
227.000000, 0.008501
228.000000, 0.007396
229.000000, 0.004693
230.000000, 0.006287
231.000000, 0.010296
232.000000, 0.001901
233.000000, 0.006992
234.000000, 0.008399
235.000000, 0.012266
236.000000, 0.003534
237.000000, 0.006560
238.000000, 0.001296
239.000000, 0.000325
240.000000, 0.006311
241.000000, 0.002075
242.000000, 0.007549
243.000000, 0.006918
244.000000, 0.001322
245.000000, 0.002649
246.000000, 0.004425
247.000000, 0.000554
248.000000, 0.001554
249.000000, 0.002336
250.000000, 0.006815
251.000000, 0.000335
252.000000, 0.004693
253.000000, 0.002460
254.000000, 0.005598
255.000000, 0.005604
256.000000, 0.000561
257.000000, 0.001571
258.000000, 0.003370
259.000000, 0.000562
260.000000, 0.001462
261.000000, 0.003154
262.000000, 0.001128
263.000000, 0.000338
264.000000, 0.001919
265.000000, 0.000452
266.000000, 0.003056
267.000000, 0.004532
268.000000, 0.007014
269.000000, 0.000227
270.000000, 0.001704
271.000000, 0.002500
272.000000, 0.005802
273.000000, 0.006489
274.000000, 0.001594
275.000000, 0.001822
276.000000, 0.001367
277.000000, 0.000684
278.000000, 0.002622
279.000000, 0.004560
280.000000, 0.000342
281.000000, 0.001596
282.000000, 0.002166
283.000000, 0.001596
284.000000, 0.000456
285.000000, 0.000798
286.000000, 0.001596
287.000000, 0.000114
288.000000, 0.001254
289.000000, 0.001026
290.000000, 0.002051
291.000000, 0.001140
292.000000, 0.000570
293.000000, 0.001595
294.000000, 0.005012
295.000000, 0.003988
296.000000, 0.001709
297.000000, 0.001140
298.000000, 0.002278
299.000000, 0.000797
300.000000, 0.000342
301.000000, 0.000228
302.000000, 0.002846
303.000000, 0.003530
304.000000, 0.000341
305.000000, 0.000683
306.000000, 0.002958
307.000000, 0.009235
308.000000, 0.001251
309.000000, 0.002274
310.000000, 0.001137
311.000000, 0.004431
312.000000, 0.008975
313.000000, 0.016692
314.000000, 0.011922
315.000000, 0.018169
316.000000, 0.036096
317.000000, 0.033015
318.000000, 0.016775
319.000000, 0.015872
320.000000, 0.029935
321.000000, 0.028363
322.000000, 0.012715
323.000000, 0.011358
324.000000, 0.011354
325.000000, 0.011577
326.000000, 0.005506
327.000000, 0.009888
328.000000, 0.005392
329.000000, 0.004378
330.000000, 0.016610
331.000000, 0.111305
332.000000, 0.299103
333.000000, 0.381220
334.000000, 0.225049
335.000000, 0.059946
336.000000, 0.024094
337.000000, 0.031588
338.000000, 0.024192
339.000000, 0.020492
340.000000, 0.014998
341.000000, 0.012865
342.000000, 0.014874
343.000000, 0.024261
344.000000, 0.076667
345.000000, 0.246868
346.000000, 0.444142
347.000000, 0.424563
348.000000, 0.261293
349.000000, 0.344481
350.000000, 0.967884
351.000000, 2.241484
352.000000, 3.670559
353.000000, 4.176390
354.000000, 3.283846
355.000000, 1.771044
356.000000, 0.719847
357.000000, 0.271389
358.000000, 0.101033
359.000000, 0.085196
360.000000, 0.038137
361.000000, 0.004001
362.000000, 0.002222
363.000000, 0.009002
364.000000, 0.005553
365.000000, 0.002887
366.000000, 0.000777
367.000000, 0.000998
368.000000, 0.002661
369.000000, 0.003991
370.000000, 0.002438
371.000000, 0.002104
372.000000, 0.001992
373.000000, 0.002766
374.000000, 0.002875
375.000000, 0.005195
376.000000, 0.006957
377.000000, 0.010267
378.000000, 0.014367
379.000000, 0.011691
380.000000, 0.011136
381.000000, 0.012342
382.000000, 0.004738
383.000000, 0.002864
384.000000, 0.005615
385.000000, 0.015303
386.000000, 0.026405
387.000000, 0.083593
388.000000, 0.763946
389.000000, 6.709722
390.000000, 28.718126
391.000000, 63.802094
392.000000, 88.702423
393.000000, 96.367819
394.000000, 97.517237
395.000000, 98.025962
396.000000, 98.284079
397.000000, 98.450386
398.000000, 98.478449
399.000000, 98.502386
400.000000, 98.528768
401.000000, 98.551571
402.000000, 98.597082
403.000000, 98.559331
404.000000, 98.302283
405.000000, 98.197021
406.000000, 98.216031
407.000000, 98.258803
408.000000, 98.339698
409.000000, 98.406284
410.000000, 98.353216
411.000000, 98.343062
412.000000, 98.294642
413.000000, 98.191872
414.000000, 98.177736
415.000000, 98.178879
416.000000, 98.075688
417.000000, 98.045335
418.000000, 98.065846
419.000000, 98.034951
420.000000, 98.084440
421.000000, 98.150768
422.000000, 98.094363
423.000000, 98.047128
424.000000, 98.037534
425.000000, 98.006990
426.000000, 98.026346
427.000000, 97.977532
428.000000, 97.871258
429.000000, 97.895335
430.000000, 97.926061
431.000000, 97.847470
432.000000, 97.867960
433.000000, 97.983062
434.000000, 97.948416
435.000000, 97.898021
436.000000, 97.871464
437.000000, 97.757409
438.000000, 97.747924
439.000000, 97.808934
440.000000, 97.754775
441.000000, 97.724058
442.000000, 97.731203
443.000000, 97.651780
444.000000, 97.543640
445.000000, 97.411518
446.000000, 97.149520
447.000000, 96.740578
448.000000, 93.559811
449.000000, 78.908580
450.000000, 48.118609
451.000000, 16.722943
452.000000, 2.331458
453.000000, 0.000669
454.000000, 0.000510
455.000000, 0.000933
456.000000, 0.000359
457.000000, 0.000410
458.000000, 0.000338
459.000000, 0.000389
460.000000, 0.000440
461.000000, 0.000307
462.000000, 0.000389
463.000000, 0.000501
464.000000, 0.000307
465.000000, 0.000368
466.000000, 0.000450
467.000000, 0.000246
468.000000, 0.000450
469.000000, 0.000725
470.000000, 0.000470
471.000000, 0.000327
472.000000, 0.000286
473.000000, 0.000266
474.000000, 0.000439
475.000000, 0.000449
476.000000, 0.000307
477.000000, 0.000418
478.000000, 0.000469
479.000000, 0.000317
480.000000, 0.000449
481.000000, 0.000510
482.000000, 0.000347
483.000000, 0.000438
484.000000, 0.000398
485.000000, 0.000123
486.000000, 0.000398
487.000000, 0.000611
488.000000, 0.000519
489.000000, 0.000590
490.000000, 0.000398
491.000000, 0.000144
492.000000, 0.000205
493.000000, 0.000215
494.000000, 0.000195
495.000000, 0.000387
496.000000, 0.000377
497.000000, 0.000195
498.000000, 0.000245
499.000000, 0.000266
500.000000, 0.000205
501.000000, 0.000408
502.000000, 0.000387
503.000000, 0.000245
504.000000, 0.000306
505.000000, 0.000296
506.000000, 0.000245
507.000000, 0.000489
508.000000, 0.000357
509.000000, 0.000123
510.000000, 0.000245
511.000000, 0.000327
512.000000, 0.000347
513.000000, 0.000529
514.000000, 0.000407
515.000000, 0.000255
516.000000, 0.000286
517.000000, 0.000296
518.000000, 0.000265
519.000000, 0.000508
520.000000, 0.000316
521.000000, 0.000083
522.000000, 0.000225
523.000000, 0.000174
524.000000, 0.000134
525.000000, 0.000387
526.000000, 0.000275
527.000000, 0.000073
528.000000, 0.000326
529.000000, 0.000407
530.000000, 0.000326
531.000000, 0.000417
532.000000, 0.000305
533.000000, 0.000224
534.000000, 0.000346
535.000000, 0.000386
536.000000, 0.000255
537.000000, 0.000285
538.000000, 0.000265
539.000000, 0.000184
540.000000, 0.000255
541.000000, 0.000346
542.000000, 0.000346
543.000000, 0.000356
544.000000, 0.000204
545.000000, 0.000144
546.000000, 0.000396
547.000000, 0.000456
548.000000, 0.000315
549.000000, 0.000295
550.000000, 0.000234
551.000000, 0.000255
552.000000, 0.000456
553.000000, 0.000305
554.000000, 0.000224
555.000000, 0.000456
556.000000, 0.000204
557.000000, 0.000144
558.000000, 0.000365
559.000000, 0.000265
560.000000, 0.000123
561.000000, 0.000345
562.000000, 0.000295
563.000000, 0.000386
564.000000, 0.000376
565.000000, 0.000376
566.000000, 0.000386
567.000000, 0.000204
568.000000, 0.000214
569.000000, 0.000356
570.000000, 0.000416
571.000000, 0.000426
572.000000, 0.000557
573.000000, 0.000406
574.000000, 0.000315
575.000000, 0.000366
576.000000, 0.000255
577.000000, 0.000325
578.000000, 0.000416
579.000000, 0.000386
580.000000, 0.000335
581.000000, 0.000396
582.000000, 0.000396
583.000000, 0.000295
584.000000, 0.000376
585.000000, 0.000315
586.000000, 0.000154
587.000000, 0.000365
588.000000, 0.000305
589.000000, 0.000275
590.000000, 0.000204
591.000000, 0.000325
592.000000, 0.000275
593.000000, 0.000466
594.000000, 0.000264
595.000000, 0.000275
596.000000, 0.000446
597.000000, 0.000426
598.000000, 0.000264
599.000000, 0.000657
600.000000, 0.000315
601.000000, 0.000325
602.000000, 0.000416
603.000000, 0.000405
604.000000, 0.000395
605.000000, 0.000627
606.000000, 0.000224
607.000000, 0.000375
608.000000, 0.000385
609.000000, 0.000425
610.000000, 0.000234
611.000000, 0.000466
612.000000, 0.000134
613.000000, 0.000435
614.000000, 0.000325
615.000000, 0.000415
616.000000, 0.000375
617.000000, 0.000616
618.000000, 0.000164
619.000000, 0.000113
620.000000, 0.000576
621.000000, 0.000506
622.000000, 0.000335
623.000000, 0.000747
624.000000, 0.000274
625.000000, 0.000294
626.000000, 0.000365
627.000000, 0.000284
628.000000, 0.000184
629.000000, 0.000555
630.000000, 0.000244
631.000000, 0.000284
632.000000, 0.000495
633.000000, 0.000284
634.000000, 0.000134
635.000000, 0.000535
636.000000, 0.000264
637.000000, 0.000324
638.000000, 0.000415
639.000000, 0.000184
640.000000, 0.000435
641.000000, 0.000635
642.000000, 0.000374
643.000000, 0.000394
644.000000, 0.000435
645.000000, 0.000154
646.000000, 0.000374
647.000000, 0.000605
648.000000, 0.000043
649.000000, 0.000013
650.000000, 0.000284
651.000000, 0.000274
652.000000, 0.000594
653.000000, 0.000404
654.000000, 0.000103
655.000000, 0.000133
656.000000, 0.000394
657.000000, 0.000144
658.000000, 0.000344
659.000000, 0.000574
660.000000, 0.000404
661.000000, 0.000394
662.000000, 0.000514
663.000000, 0.000314
664.000000, 0.000283
665.000000, 0.000154
666.000000, 0.000483
667.000000, 0.000243
668.000000, 0.000453
669.000000, 0.000323
670.000000, 0.000353
671.000000, 0.000403
672.000000, 0.000653
673.000000, 0.000253
674.000000, 0.000653
675.000000, 0.000333
676.000000, 0.000303
677.000000, 0.000433
678.000000, 0.000163
679.000000, 0.000562
680.000000, 0.000273
681.000000, 0.000532
682.000000, 0.000383
683.000000, 0.000393
684.000000, 0.000383
685.000000, 0.000801
686.000000, 0.000393
687.000000, 0.000363
688.000000, 0.000203
689.000000, 0.000562
690.000000, 0.000552
691.000000, 0.000324
692.000000, 0.000472
693.000000, 0.000253
694.000000, 0.000392
695.000000, 0.000432
696.000000, 0.000422
697.000000, 0.000332
698.000000, 0.000521
699.000000, 0.000004
700.000000, 0.000342
701.000000, 0.000372
702.000000, 0.000402
703.000000, 0.000431
704.000000, 0.000392
705.000000, 0.000471
706.000000, 0.000253
707.000000, 0.000520
708.000000, 0.000252
709.000000, 0.000609
710.000000, 0.000431
711.000000, 0.000342
712.000000, 0.000074
713.000000, 0.000579
714.000000, 0.000391
715.000000, 0.000530
716.000000, 0.000242
717.000000, 0.000341
718.000000, 0.000163
719.000000, 0.000628
720.000000, 0.000213
721.000000, 0.000608
722.000000, 0.000252
723.000000, 0.000242
724.000000, 0.000173
725.000000, 0.000588
726.000000, 0.000370
727.000000, 0.000390
728.000000, 0.000173
729.000000, 0.000479
730.000000, 0.000252
731.000000, 0.000656
732.000000, 0.000242
733.000000, 0.000439
734.000000, 0.000212
735.000000, 0.000291
736.000000, 0.000478
737.000000, 0.000547
738.000000, 0.000458
739.000000, 0.000576
740.000000, 0.000370
741.000000, 0.000301
742.000000, 0.000251
743.000000, 0.000576
744.000000, 0.000251
745.000000, 0.000448
746.000000, 0.000379
747.000000, 0.000369
748.000000, 0.000428
749.000000, 0.000398
750.000000, 0.000379
751.000000, 0.000418
752.000000, 0.000349
753.000000, 0.000251
754.000000, 0.000457
755.000000, 0.000388
756.000000, 0.000457
757.000000, 0.000408
758.000000, 0.000241
759.000000, 0.000349
760.000000, 0.000534
761.000000, 0.000652
762.000000, 0.000642
763.000000, 0.000280
764.000000, 0.000759
765.000000, 0.000465
766.000000, 0.000397
767.000000, 0.000661
768.000000, 0.000621
769.000000, 0.000202
770.000000, 0.000533
771.000000, 0.000260
772.000000, 0.000484
773.000000, 0.000786
774.000000, 0.000591
775.000000, 0.000046
776.000000, 0.000523
777.000000, 0.000425
778.000000, 0.000484
779.000000, 0.000659
780.000000, 0.000600
781.000000, 0.000260
782.000000, 0.000688
783.000000, 0.000473
784.000000, 0.000473
785.000000, 0.000784
786.000000, 0.000522
787.000000, 0.000230
788.000000, 0.000619
789.000000, 0.000512
790.000000, 0.000424
791.000000, 0.000686
792.000000, 0.000414
793.000000, 0.000172
794.000000, 0.000288
795.000000, 0.000395
796.000000, 0.000453
797.000000, 0.000540
798.000000, 0.000385
799.000000, 0.000298
800.000000, 0.000307
801.000000, 0.000433
802.000000, 0.000675
803.000000, 0.000762
804.000000, 0.000365
805.000000, 0.000297
806.000000, 0.000327
807.000000, 0.000404
808.000000, 0.000442
809.000000, 0.000578
810.000000, 0.000374
811.000000, 0.000577
812.000000, 0.000548
813.000000, 0.000374
814.000000, 0.000249
815.000000, 0.000230
816.000000, 0.000268
817.000000, 0.000567
818.000000, 0.000770
819.000000, 0.000557
820.000000, 0.000259
821.000000, 0.000374
822.000000, 0.000423
823.000000, 0.000654
824.000000, 0.000693
825.000000, 0.000712
826.000000, 0.000384
827.000000, 0.000365
828.000000, 0.000462
829.000000, 0.000635
830.000000, 0.000510
831.000000, 0.000510
832.000000, 0.000365
833.000000, 0.000259
834.000000, 0.000346
835.000000, 0.000676
836.000000, 0.000782
837.000000, 0.000695
838.000000, 0.000444
839.000000, 0.000522
840.000000, 0.000483
841.000000, 0.000609
842.000000, 0.000629
843.000000, 0.000454
844.000000, 0.000347
845.000000, 0.000601
846.000000, 0.000435
847.000000, 0.000689
848.000000, 0.000904
849.000000, 0.000621
850.000000, 0.000397
851.000000, 0.000505
852.000000, 0.000466
853.000000, 0.000652
854.000000, 0.000857
855.000000, 0.000711
856.000000, 0.000466
857.000000, 0.000623
858.000000, 0.000466
859.000000, 0.000388
860.000000, 0.000425
861.000000, 0.000326
862.000000, 0.000407
863.000000, 0.000427
864.000000, 0.000424
865.000000, 0.000523
866.000000, 0.000644
867.000000, 0.000553
868.000000, 0.000364
869.000000, 0.000328
870.000000, 0.000406
871.000000, 0.000473
872.000000, 0.000512
873.000000, 0.000469
874.000000, 0.000415
875.000000, 0.000542
876.000000, 0.000675
877.000000, 0.000484
878.000000, 0.000229
879.000000, 0.000337
880.000000, 0.000423
881.000000, 0.000389
882.000000, 0.000471
883.000000, 0.000541
884.000000, 0.000579
885.000000, 0.000643
886.000000, 0.000646
887.000000, 0.000380
888.000000, 0.000241
889.000000, 0.000449
890.000000, 0.000615
891.000000, 0.000694
892.000000, 0.000638
893.000000, 0.000388
894.000000, 0.000316
895.000000, 0.000520
896.000000, 0.000657
897.000000, 0.000614
898.000000, 0.000360
899.000000, 0.000154
900.000000, 0.000293
901.000000, 0.000541
902.000000, 0.000672
903.000000, 0.000619
904.000000, 0.000280
905.000000, 0.000192
906.000000, 0.000458
907.000000, 0.000649
908.000000, 0.000654
909.000000, 0.000673
910.000000, 0.000665
911.000000, 0.000304
912.000000, 0.000253
913.000000, 0.000764
914.000000, 0.000992
915.000000, 0.000565
916.000000, 0.000105
917.000000, 0.000035
918.000000, 0.000381
919.000000, 0.000790
920.000000, 0.000958
921.000000, 0.000645
922.000000, 0.000200
923.000000, 0.000372
924.000000, 0.000715
925.000000, 0.000614
926.000000, 0.000424
927.000000, 0.000475
928.000000, 0.000616
929.000000, 0.000507
930.000000, 0.000462
931.000000, 0.000487
932.000000, 0.000462
933.000000, 0.000414
934.000000, 0.000400
935.000000, 0.000482
936.000000, 0.000424
937.000000, 0.000459
938.000000, 0.000478
939.000000, 0.000578
940.000000, 0.000823
941.000000, 0.000684
942.000000, 0.000562
943.000000, 0.000453
944.000000, 0.000483
945.000000, 0.000447
946.000000, 0.000414
947.000000, 0.000429
948.000000, 0.000564
949.000000, 0.000871
950.000000, 0.000494
951.000000, 0.000386
952.000000, 0.000404
953.000000, 0.000415
954.000000, 0.000363
955.000000, 0.000366
956.000000, 0.000484
957.000000, 0.000583
958.000000, 0.000898
959.000000, 0.000866
960.000000, 0.000454
961.000000, 0.000107
962.000000, 0.000420
963.000000, 0.000782
964.000000, 0.000573
965.000000, 0.000473
966.000000, 0.000442
967.000000, 0.000374
968.000000, 0.000403
969.000000, 0.000409
970.000000, 0.000487
971.000000, 0.000413
972.000000, 0.000491
973.000000, 0.000613
974.000000, 0.000365
975.000000, 0.000347
976.000000, 0.000726
977.000000, 0.000792
978.000000, 0.000451
979.000000, 0.000653
980.000000, 0.000700
981.000000, 0.000622
982.000000, 0.000494
983.000000, 0.000690
984.000000, 0.000463
985.000000, 0.000322
986.000000, 0.000439
987.000000, 0.000655
988.000000, 0.000403
989.000000, 0.000306
990.000000, 0.000418
991.000000, 0.000696
992.000000, 0.000561
993.000000, 0.000396
994.000000, 0.000264
995.000000, 0.000423
996.000000, 0.000761
997.000000, 0.000427
998.000000, 0.000343
999.000000, 0.000381
1000.000000, 0.000611
1001.000000, 0.000831
1002.000000, 0.000520
1003.000000, 0.000366
1004.000000, 0.000299
1005.000000, 0.000405
1006.000000, 0.000797
1007.000000, 0.000506
1008.000000, 0.000331
1009.000000, 0.000339
1010.000000, 0.000276
1011.000000, 0.000427
1012.000000, 0.000824
1013.000000, 0.000881
1014.000000, 0.000511
1015.000000, 0.000373
1016.000000, 0.000409
1017.000000, 0.000789
1018.000000, 0.000684
1019.000000, 0.000413
1020.000000, 0.000313
1021.000000, 0.000317
1022.000000, 0.000382
1023.000000, 0.000766
1024.000000, 0.000885
1025.000000, 0.000823
1026.000000, 0.000369
1027.000000, 0.000289
1028.000000, 0.000443
1029.000000, 0.000475
1030.000000, 0.000889
1031.000000, 0.000749
1032.000000, 0.000389
1033.000000, 0.000331
1034.000000, 0.000299
1035.000000, 0.000377
1036.000000, 0.000504
1037.000000, 0.000916
1038.000000, 0.000806
1039.000000, 0.000420
1040.000000, 0.000357
1041.000000, 0.000275
1042.000000, 0.000429
1043.000000, 0.000376
1044.000000, 0.000814
1045.000000, 0.000766
1046.000000, 0.000736
1047.000000, 0.000291
1048.000000, 0.000257
1049.000000, 0.000391
1050.000000, 0.000420
1051.000000, 0.000903
1052.000000, 0.000904
1053.000000, 0.000814
1054.000000, 0.000386
1055.000000, 0.000252
1056.000000, 0.000295
1057.000000, 0.000432
1058.000000, 0.000149
1059.000000, 0.000396
1060.000000, 0.000874
1061.000000, 0.000900
1062.000000, 0.000837
1063.000000, 0.000420
1064.000000, 0.000484
1065.000000, 0.000305
1066.000000, 0.000301
1067.000000, 0.000221
1068.000000, 0.000161
1069.000000, 0.000317
1070.000000, 0.000718
1071.000000, 0.000912
1072.000000, 0.000972
1073.000000, 0.000761
1074.000000, 0.000396
1075.000000, 0.000232
1076.000000, 0.000223
1077.000000, 0.000157
1078.000000, 0.000384
1079.000000, 0.000835
1080.000000, 0.000946
1081.000000, 0.000653
1082.000000, 0.000268
1083.000000, 0.000159
1084.000000, 0.000134
1085.000000, 0.000255
1086.000000, 0.000682
1087.000000, 0.000847
1088.000000, 0.000683
1089.000000, 0.000695
1090.000000, 0.000599
1091.000000, 0.000086
1092.000000, 0.000259
1093.000000, 0.000786
1094.000000, 0.000886
1095.000000, 0.000746
1096.000000, 0.000774
1097.000000, 0.000600
1098.000000, 0.000257
1099.000000, 0.000244
1100.000000, 0.000181
1101.000000, 0.000443
1102.000000, 0.000849
1103.000000, 0.000756
1104.000000, 0.000893
1105.000000, 0.000901
1106.000000, 0.000797
1107.000000, 0.000490
1108.000000, 0.000480
1109.000000, 0.000509
1110.000000, 0.000324
1111.000000, 0.000393
1112.000000, 0.000352
1113.000000, 0.000384
1114.000000, 0.000389
1115.000000, 0.000411
1116.000000, 0.000413
1117.000000, 0.000289
1118.000000, 0.000218
1119.000000, 0.000116
1120.000000, 0.000103
1121.000000, 0.000256
1122.000000, 0.000734
1123.000000, 0.000837
1124.000000, 0.000737
1125.000000, 0.000696
1126.000000, 0.000611
1127.000000, 0.000182
1128.000000, 0.000124
1129.000000, 0.000430
1130.000000, 0.000908
1131.000000, 0.000761
1132.000000, 0.000789
1133.000000, 0.000846
1134.000000, 0.000838
1135.000000, 0.000424
1136.000000, 0.000487
1137.000000, 0.000469
1138.000000, 0.000352
1139.000000, 0.000274
1140.000000, 0.000181
1141.000000, 0.000126
1142.000000, 0.000176
1143.000000, 0.000365
1144.000000, 0.000789
1145.000000, 0.000717
1146.000000, 0.000684
1147.000000, 0.000674
1148.000000, 0.000529
1149.000000, 0.000167
1150.000000, 0.000155
1151.000000, 0.000356
1152.000000, 0.000716
1153.000000, 0.000554
1154.000000, 0.000606
1155.000000, 0.000637
1156.000000, 0.000702
1157.000000, 0.000680
1158.000000, 0.000504
1159.000000, 0.000237
1160.000000, 0.000106
1161.000000, 0.000231
1162.000000, 0.000501
1163.000000, 0.000527
1164.000000, 0.000548
1165.000000, 0.000638
1166.000000, 0.000635
1167.000000, 0.000545
1168.000000, 0.000623
1169.000000, 0.000564
1170.000000, 0.000613
1171.000000, 0.000754
1172.000000, 0.000833
1173.000000, 0.000794
1174.000000, 0.000520
1175.000000, 0.000341
1176.000000, 0.000232
1177.000000, 0.000186
1178.000000, 0.000159
1179.000000, 0.000198
1180.000000, 0.000119
1181.000000, 0.000169
1182.000000, 0.000448
1183.000000, 0.000485
1184.000000, 0.000495
1185.000000, 0.000520
1186.000000, 0.000616
1187.000000, 0.000591
1188.000000, 0.000467
1189.000000, 0.000542
1190.000000, 0.000641
1191.000000, 0.000582
1192.000000, 0.000429
1193.000000, 0.000162
1194.000000, 0.000215
1195.000000, 0.000454
1196.000000, 0.000686
1197.000000, 0.000687
1198.000000, 0.000458
1199.000000, 0.000271
1200.000000, 0.000451
1201.000000, 0.000534
1202.000000, 0.000401
1203.000000, 0.000346
1204.000000, 0.000684
1205.000000, 0.000780
1206.000000, 0.000807
1207.000000, 0.000626
1208.000000, 0.000311
1209.000000, 0.000321
1210.000000, 0.000262
1211.000000, 0.000262
1212.000000, 0.000136
1213.000000, 0.000119
1214.000000, 0.000059
1215.000000, 0.000898
1216.000000, 0.010870
1217.000000, 0.005336
1218.000000, 0.001107
1219.000000, 0.013364
1220.000000, 0.015426
1221.000000, 0.018245
1222.000000, 0.052386
1223.000000, 0.094326
1224.000000, 0.096929
1225.000000, 0.095525
1226.000000, 0.335082
1227.000000, 0.952884
1228.000000, 1.235932
1229.000000, 0.723599
1230.000000, 0.165910
1231.000000, 0.015531
1232.000000, 0.005555
1233.000000, 0.023012
1234.000000, 0.056949
1235.000000, 0.060093
1236.000000, 0.055322
1237.000000, 0.045132
1238.000000, 0.023228
1239.000000, 0.001968
1240.000000, 0.019213
1241.000000, 0.035485
1242.000000, 0.036678
1243.000000, 0.039715
1244.000000, 0.043836
1245.000000, 0.051212
1246.000000, 0.062385
1247.000000, 0.078651
1248.000000, 0.095141
1249.000000, 0.108282
1250.000000, 0.134433
1251.000000, 0.152117
1252.000000, 0.152126
1253.000000, 0.154294
1254.000000, 0.162026
1255.000000, 0.172033
1256.000000, 0.209001
1257.000000, 0.242288
1258.000000, 0.234732
1259.000000, 0.266673
1260.000000, 0.396520
1261.000000, 0.555866
1262.000000, 0.701104
1263.000000, 0.872278
1264.000000, 0.962128
1265.000000, 0.890516
1266.000000, 0.753557
1267.000000, 0.629389
1268.000000, 0.544000
1269.000000, 0.486067
1270.000000, 0.467232
1271.000000, 0.492466
1272.000000, 0.558195
1273.000000, 0.666450
1274.000000, 0.848558
1275.000000, 1.145260
1276.000000, 1.539525
1277.000000, 2.010521
1278.000000, 2.394608
1279.000000, 2.498733
1280.000000, 2.313234
1281.000000, 1.986613
1282.000000, 1.720291
1283.000000, 1.563960
1284.000000, 1.499613
1285.000000, 1.516056
1286.000000, 1.609527
1287.000000, 1.794292
1288.000000, 2.105972
1289.000000, 2.601268
1290.000000, 3.291048
1291.000000, 4.186463
1292.000000, 5.192112
1293.000000, 6.074442
1294.000000, 6.561759
1295.000000, 6.580251
1296.000000, 6.308976
1297.000000, 5.958288
1298.000000, 5.694350
1299.000000, 5.599851
1300.000000, 5.751980
1301.000000, 6.232035
1302.000000, 7.031845
1303.000000, 8.175085
1304.000000, 9.757521
1305.000000, 11.582648
1306.000000, 13.205126
1307.000000, 14.084706
1308.000000, 13.941127
1309.000000, 12.959355
1310.000000, 11.705753
1311.000000, 10.568126
1312.000000, 9.762181
1313.000000, 9.403628
1314.000000, 9.479817
1315.000000, 9.998781
1316.000000, 11.049556
1317.000000, 12.815309
1318.000000, 15.618989
1319.000000, 19.646074
1320.000000, 25.976173
1321.000000, 35.052220
1322.000000, 45.850041
1323.000000, 56.924546
1324.000000, 64.588854
1325.000000, 66.742528
1326.000000, 64.369403
1327.000000, 60.187159
1328.000000, 56.584704
1329.000000, 54.701808
1330.000000, 54.831233
1331.000000, 56.765282
1332.000000, 60.622349
1333.000000, 65.534807
1334.000000, 70.571489
1335.000000, 74.508883
1336.000000, 76.151203
1337.000000, 74.980983
1338.000000, 71.459800
1339.000000, 66.896986
1340.000000, 62.339848
1341.000000, 58.650184
1342.000000, 56.315034
1343.000000, 55.311213
1344.000000, 55.631450
1345.000000, 57.186076
1346.000000, 59.505834
1347.000000, 62.017346
1348.000000, 63.917067
1349.000000, 64.592705
1350.000000, 63.495950
1351.000000, 60.789643
1352.000000, 57.071005
1353.000000, 53.258282
1354.000000, 49.718136
1355.000000, 46.940598
1356.000000, 45.373938
1357.000000, 45.088829
1358.000000, 45.906223
1359.000000, 48.000100
1360.000000, 51.777428
1361.000000, 57.027933
1362.000000, 62.288908
1363.000000, 66.827011
1364.000000, 69.903020
1365.000000, 70.328457
1366.000000, 67.843115
1367.000000, 62.178033
1368.000000, 55.743083
1369.000000, 49.749485
1370.000000, 44.593835
1371.000000, 40.274134
1372.000000, 37.286088
1373.000000, 35.444653
1374.000000, 34.609976
1375.000000, 34.684385
1376.000000, 35.639039
1377.000000, 37.642613
1378.000000, 40.524190
1379.000000, 44.478002
1380.000000, 49.477898
1381.000000, 55.638061
1382.000000, 62.217943
1383.000000, 68.811619
1384.000000, 73.284024
1385.000000, 75.687059
1386.000000, 76.124935
1387.000000, 74.633093
1388.000000, 71.853200
1389.000000, 69.021682
1390.000000, 66.808802
1391.000000, 65.319624
1392.000000, 64.791704
1393.000000, 65.401511
1394.000000, 66.908027
1395.000000, 69.663188
1396.000000, 72.741786
1397.000000, 75.606117
1398.000000, 78.007881
1399.000000, 79.694889
1400.000000, 80.037976
1401.000000, 78.916956
1402.000000, 76.830446
1403.000000, 73.894663
1404.000000, 70.673739
1405.000000, 67.818333
1406.000000, 65.707568
1407.000000, 64.273306
1408.000000, 63.750229
1409.000000, 64.126298
1410.000000, 65.238422
1411.000000, 67.178017
1412.000000, 69.553860
1413.000000, 72.591825
1414.000000, 75.737800
1415.000000, 78.450461
1416.000000, 80.363472
1417.000000, 81.202781
1418.000000, 81.155271
1419.000000, 79.998890
1420.000000, 78.134103
1421.000000, 75.981389
1422.000000, 73.908735
1423.000000, 71.978164
1424.000000, 70.698618
1425.000000, 70.192483
1426.000000, 70.429754
1427.000000, 71.444581
1428.000000, 72.984281
1429.000000, 75.172000
1430.000000, 77.384045
1431.000000, 79.460260
1432.000000, 80.927684
1433.000000, 81.407796
1434.000000, 80.715151
1435.000000, 78.946529
1436.000000, 76.322381
1437.000000, 73.159490
1438.000000, 69.933435
1439.000000, 67.068857
1440.000000, 64.800057
1441.000000, 63.124558
1442.000000, 62.435710
1443.000000, 62.536996
1444.000000, 63.673366
1445.000000, 65.575987
1446.000000, 68.039921
1447.000000, 71.093252
1448.000000, 74.343485
1449.000000, 77.288318
1450.000000, 79.259328
1451.000000, 79.853040
1452.000000, 78.742828
1453.000000, 75.816723
1454.000000, 71.865209
1455.000000, 66.915381
1456.000000, 61.946961
1457.000000, 57.033872
1458.000000, 52.892521
1459.000000, 49.522821
1460.000000, 46.858286
1461.000000, 44.965932
1462.000000, 43.789931
1463.000000, 43.434315
1464.000000, 43.796198
1465.000000, 44.931000
1466.000000, 46.704246
1467.000000, 49.373882
1468.000000, 52.490269
1469.000000, 56.247250
1470.000000, 60.267255
1471.000000, 64.231046
1472.000000, 67.571594
1473.000000, 69.827976
1474.000000, 70.664120
1475.000000, 69.948752
1476.000000, 67.966351
1477.000000, 65.062940
1478.000000, 61.793552
1479.000000, 58.636313
1480.000000, 55.853479
1481.000000, 53.606656
1482.000000, 52.128627
1483.000000, 51.372265
1484.000000, 51.333135
1485.000000, 52.054034
1486.000000, 53.523736
1487.000000, 55.762439
1488.000000, 58.673031
1489.000000, 62.331713
1490.000000, 66.620564
1491.000000, 71.066149
1492.000000, 75.538297
1493.000000, 79.851801
1494.000000, 83.220327
1495.000000, 85.439307
1496.000000, 86.188081
1497.000000, 85.566547
1498.000000, 83.711066
1499.000000, 81.110805
1500.000000, 78.108661
1501.000000, 75.079457
1502.000000, 72.402247
1503.000000, 70.124446
1504.000000, 68.462072
1505.000000, 67.479679
1506.000000, 67.195515
1507.000000, 67.616387
1508.000000, 68.658160
1509.000000, 70.293298
1510.000000, 72.355710
1511.000000, 74.728697
1512.000000, 77.449888
1513.000000, 80.095026
1514.000000, 82.450795
1515.000000, 84.458729
1516.000000, 85.751392
1517.000000, 86.424567
1518.000000, 86.469851
1519.000000, 85.967035
1520.000000, 85.053913
1521.000000, 84.001568
1522.000000, 82.991069
1523.000000, 82.109943
1524.000000, 81.463879
1525.000000, 81.197284
1526.000000, 81.334144
1527.000000, 81.847936
1528.000000, 82.693500
1529.000000, 83.840875
1530.000000, 85.147766
1531.000000, 86.500548
1532.000000, 87.786292
1533.000000, 88.810163
1534.000000, 89.491262
1535.000000, 89.724957
1536.000000, 89.472408
1537.000000, 88.703811
1538.000000, 87.473665
1539.000000, 85.930627
1540.000000, 84.174306
1541.000000, 82.235168
1542.000000, 80.399919
1543.000000, 78.651083
1544.000000, 77.144778
1545.000000, 75.893977
1546.000000, 74.866325
1547.000000, 74.196223
1548.000000, 73.766332
1549.000000, 73.572013
1550.000000, 73.568873
1551.000000, 73.667051
1552.000000, 73.796877
1553.000000, 73.911504
1554.000000, 74.001182
1555.000000, 73.967326
1556.000000, 73.795626
1557.000000, 73.541626
1558.000000, 73.198890
1559.000000, 72.835414
1560.000000, 72.488342
1561.000000, 72.263857
1562.000000, 72.200756
1563.000000, 72.386027
1564.000000, 72.852467
1565.000000, 73.611883
1566.000000, 74.714652
1567.000000, 76.170287
1568.000000, 77.941182
1569.000000, 79.989962
1570.000000, 82.097192
1571.000000, 84.298058
1572.000000, 86.499792
1573.000000, 88.286337
1574.000000, 89.572406
1575.000000, 90.264553
1576.000000, 90.209592
1577.000000, 89.355847
1578.000000, 87.645178
1579.000000, 85.338403
1580.000000, 82.528466
1581.000000, 79.509208
1582.000000, 76.486831
1583.000000, 73.529322
1584.000000, 70.927236
1585.000000, 68.736585
1586.000000, 67.004821
1587.000000, 65.755009
1588.000000, 65.086999
1589.000000, 64.985164
1590.000000, 65.468335
1591.000000, 66.558703
1592.000000, 68.254929
1593.000000, 70.473063
1594.000000, 73.226353
1595.000000, 76.332806
1596.000000, 79.671636
1597.000000, 83.067902
1598.000000, 86.173824
1599.000000, 88.753926
1600.000000, 90.560394
1601.000000, 91.337467
1602.000000, 90.967092
1603.000000, 89.584794
1604.000000, 87.346924
1605.000000, 84.481017
1606.000000, 81.273267
1607.000000, 78.008639
1608.000000, 74.933891
1609.000000, 72.130845
1610.000000, 69.785538
1611.000000, 67.932418
1612.000000, 66.577781
1613.000000, 65.789380
1614.000000, 65.585551
1615.000000, 65.914964
1616.000000, 66.762151
1617.000000, 68.182682
1618.000000, 70.212596
1619.000000, 72.709948
1620.000000, 75.642913
1621.000000, 78.875441
1622.000000, 82.242871
1623.000000, 85.630078
1624.000000, 88.704705
1625.000000, 91.279061
1626.000000, 93.136282
1627.000000, 94.012223
1628.000000, 93.830705
1629.000000, 92.656321
1630.000000, 90.635810
1631.000000, 87.930537
1632.000000, 84.859001
1633.000000, 81.754165
1634.000000, 78.768223
1635.000000, 76.084259
1636.000000, 73.860739
1637.000000, 72.019784
1638.000000, 70.685698
1639.000000, 69.938646
1640.000000, 69.720661
1641.000000, 70.061299
1642.000000, 70.896882
1643.000000, 72.228444
1644.000000, 74.029108
1645.000000, 76.210754
1646.000000, 78.713154
1647.000000, 81.389590
1648.000000, 84.132001
1649.000000, 86.896642
1650.000000, 89.495541
1651.000000, 91.725841
1652.000000, 93.480374
1653.000000, 94.660482
1654.000000, 95.200164
1655.000000, 95.119242
1656.000000, 94.478249
1657.000000, 93.381373
1658.000000, 91.962067
1659.000000, 90.361873
1660.000000, 88.729235
1661.000000, 87.133026
1662.000000, 85.726371
1663.000000, 84.620059
1664.000000, 83.827236
1665.000000, 83.381266
1666.000000, 83.317790
1667.000000, 83.629383
1668.000000, 84.275539
1669.000000, 85.192643
1670.000000, 86.456038
1671.000000, 87.872939
1672.000000, 89.302749
1673.000000, 90.688691
1674.000000, 91.924292
1675.000000, 92.855937
1676.000000, 93.376186
1677.000000, 93.451901
1678.000000, 93.075226
1679.000000, 92.204808
1680.000000, 90.881771
1681.000000, 89.290518
1682.000000, 87.443143
1683.000000, 85.461801
1684.000000, 83.505417
1685.000000, 81.673340
1686.000000, 79.980422
1687.000000, 78.563186
1688.000000, 77.409268
1689.000000, 76.595905
1690.000000, 76.100516
1691.000000, 75.943017
1692.000000, 76.108369
1693.000000, 76.547108
1694.000000, 77.311665
1695.000000, 78.338942
1696.000000, 79.636981
1697.000000, 81.116071
1698.000000, 82.725569
1699.000000, 84.417225
1700.000000, 86.112812
1701.000000, 87.687945
1702.000000, 89.123123
1703.000000, 90.351761
1704.000000, 91.260854
1705.000000, 91.826513
1706.000000, 92.050358
1707.000000, 91.950230
1708.000000, 91.569717
1709.000000, 90.971534
1710.000000, 90.211866
1711.000000, 89.380272
1712.000000, 88.579683
1713.000000, 87.874576
1714.000000, 87.287409
1715.000000, 86.914375
1716.000000, 86.770025
1717.000000, 86.883841
1718.000000, 87.211853
1719.000000, 87.795302
1720.000000, 88.600477
1721.000000, 89.627026
1722.000000, 90.728519
1723.000000, 91.922495
1724.000000, 93.135226
1725.000000, 94.251714
1726.000000, 95.217383
1727.000000, 95.971600
1728.000000, 96.461850
1729.000000, 96.588941
1730.000000, 96.445446
1731.000000, 95.930988
1732.000000, 95.078670
1733.000000, 94.016294
1734.000000, 92.744848
1735.000000, 91.346443
1736.000000, 89.947354
1737.000000, 88.552127
1738.000000, 87.265308
1739.000000, 86.125330
1740.000000, 85.171109
1741.000000, 84.472286
1742.000000, 84.040559
1743.000000, 83.883381
1744.000000, 84.052079
1745.000000, 84.486047
1746.000000, 85.224058
1747.000000, 86.229488
1748.000000, 87.403250
1749.000000, 88.672962
1750.000000, 90.033652
1751.000000, 91.328663
1752.000000, 92.490077
1753.000000, 93.313278
1754.000000, 93.810507
1755.000000, 93.845976
1756.000000, 93.309826
1757.000000, 92.264495
1758.000000, 90.659705
1759.000000, 88.635361
1760.000000, 86.183122
1761.000000, 83.582505
1762.000000, 80.821986
1763.000000, 78.003864
1764.000000, 75.332969
1765.000000, 72.821132
1766.000000, 70.505970
1767.000000, 68.488468
1768.000000, 66.767263
1769.000000, 65.397982
1770.000000, 64.334156
1771.000000, 63.586718
1772.000000, 63.201982
1773.000000, 63.149402
1774.000000, 63.438007
1775.000000, 64.075173
1776.000000, 65.068566
1777.000000, 66.304379
1778.000000, 67.994038
1779.000000, 69.856151
1780.000000, 72.170533
1781.000000, 74.732319
1782.000000, 77.422807
1783.000000, 80.246879
1784.000000, 83.083982
1785.000000, 86.055829
1786.000000, 88.753306
1787.000000, 90.949831
1788.000000, 92.757508
1789.000000, 94.013088
1790.000000, 94.661972
1791.000000, 94.683357
1792.000000, 94.089136
1793.000000, 92.957308
1794.000000, 91.416928
1795.000000, 89.642532
1796.000000, 87.780300
1797.000000, 85.797049
1798.000000, 83.865752
1799.000000, 82.152842
1800.000000, 80.627808
1801.000000, 79.415431
1802.000000, 78.571029
1803.000000, 77.995277
1804.000000, 77.791258
1805.000000, 77.913792
1806.000000, 78.374044
1807.000000, 78.998497
1808.000000, 80.043793
1809.000000, 81.387134
1810.000000, 82.943135
1811.000000, 84.645158
1812.000000, 86.470995
1813.000000, 88.202242
1814.000000, 89.909763
1815.000000, 91.463313
1816.000000, 92.886172
1817.000000, 93.882264
1818.000000, 94.489038
1819.000000, 94.635116
1820.000000, 94.281162
1821.000000, 93.385693
1822.000000, 92.127209
1823.000000, 90.471979
1824.000000, 88.648319
1825.000000, 86.455424
1826.000000, 83.895339
1827.000000, 81.538184
1828.000000, 79.159140
1829.000000, 77.156065
1830.000000, 75.019942
1831.000000, 73.203748
1832.000000, 71.733714
1833.000000, 70.656138
1834.000000, 69.816915
1835.000000, 69.320057
1836.000000, 69.022625
1837.000000, 69.054769
1838.000000, 69.381930
1839.000000, 70.007227
1840.000000, 71.071677
1841.000000, 72.458033
1842.000000, 73.860979
1843.000000, 75.210031
1844.000000, 76.631850
1845.000000, 78.435369
1846.000000, 80.484824
1847.000000, 82.853285
1848.000000, 85.185842
1849.000000, 87.024574
1850.000000, 88.400043
1851.000000, 89.669137
1852.000000, 90.752832
1853.000000, 91.526900
1854.000000, 91.977031
1855.000000, 92.021116
1856.000000, 91.784565
1857.000000, 91.231804
1858.000000, 90.420483
1859.000000, 89.363876
1860.000000, 88.131964
1861.000000, 86.872509
1862.000000, 85.699362
1863.000000, 84.571505
1864.000000, 83.641244
1865.000000, 82.656469
1866.000000, 81.935054
1867.000000, 81.377032
1868.000000, 80.974152
1869.000000, 80.766837
1870.000000, 80.768335
1871.000000, 81.076337
1872.000000, 81.576638
1873.000000, 82.247806
1874.000000, 83.133120
1875.000000, 84.104376
1876.000000, 85.192398
1877.000000, 86.335872
1878.000000, 87.446944
1879.000000, 88.417775
1880.000000, 89.365058
1881.000000, 90.164088
1882.000000, 90.878021
1883.000000, 91.465282
1884.000000, 91.782812
1885.000000, 91.777653
1886.000000, 91.511619
1887.000000, 91.040157
1888.000000, 90.379385
1889.000000, 89.535803
1890.000000, 88.577656
1891.000000, 87.447663
1892.000000, 86.211606
1893.000000, 85.133939
1894.000000, 84.042404
1895.000000, 83.062965
1896.000000, 82.202661
1897.000000, 81.392596
1898.000000, 80.725812
1899.000000, 80.046374
1900.000000, 79.562501
1901.000000, 79.288320
1902.000000, 79.237149
1903.000000, 79.424370
1904.000000, 79.827467
1905.000000, 80.452237
1906.000000, 81.207100
1907.000000, 82.043664
1908.000000, 82.929314
1909.000000, 83.861123
1910.000000, 84.903240
1911.000000, 86.111419
1912.000000, 87.314666
1913.000000, 88.524509
1914.000000, 89.626028
1915.000000, 90.430669
1916.000000, 91.056660
1917.000000, 91.496459
1918.000000, 91.756876
1919.000000, 91.769368
1920.000000, 91.604511
1921.000000, 91.194326
1922.000000, 90.535929
1923.000000, 89.774482
1924.000000, 88.906482
1925.000000, 87.922089
1926.000000, 86.867601
1927.000000, 85.759120
1928.000000, 84.688637
1929.000000, 83.644130
1930.000000, 82.695368
1931.000000, 81.875535
1932.000000, 81.136759
1933.000000, 80.490049
1934.000000, 80.014131
1935.000000, 79.662024
1936.000000, 79.442784
1937.000000, 79.374940
1938.000000, 79.432006
1939.000000, 79.648891
1940.000000, 80.010507
1941.000000, 80.442719
1942.000000, 80.975704
1943.000000, 81.594821
1944.000000, 82.233095
1945.000000, 82.921526
1946.000000, 83.616568
1947.000000, 84.278082
1948.000000, 84.909181
1949.000000, 85.456566
1950.000000, 85.879017
1951.000000, 86.194744
1952.000000, 86.382178
1953.000000, 86.415210
1954.000000, 86.313738
1955.000000, 86.076594
1956.000000, 85.660813
1957.000000, 85.199492
1958.000000, 84.708583
1959.000000, 84.086119
1960.000000, 83.474844
1961.000000, 82.873112
1962.000000, 82.245584
1963.000000, 81.681640
1964.000000, 81.166458
1965.000000, 80.752453
1966.000000, 80.461022
1967.000000, 80.237612
1968.000000, 80.135156
1969.000000, 80.169886
1970.000000, 80.326586
1971.000000, 80.611812
1972.000000, 81.003265
1973.000000, 81.525585
1974.000000, 82.156989
1975.000000, 82.851285
1976.000000, 83.626921
1977.000000, 84.464014
1978.000000, 85.327034
1979.000000, 86.217533
1980.000000, 87.082958
1981.000000, 87.890842
1982.000000, 88.585459
1983.000000, 89.151876
1984.000000, 89.589144
1985.000000, 89.856770
1986.000000, 89.909480
1987.000000, 89.743148
1988.000000, 89.375687
1989.000000, 88.762433
1990.000000, 87.937082
1991.000000, 86.955433
1992.000000, 85.823679
1993.000000, 84.573327
1994.000000, 83.235038
1995.000000, 81.881739
1996.000000, 80.521577
1997.000000, 79.174182
1998.000000, 77.904812
1999.000000, 76.696101
2000.000000, 75.573986
2001.000000, 74.590562
2002.000000, 73.716033
2003.000000, 73.012222
2004.000000, 72.491256
2005.000000, 72.121299
2006.000000, 71.888151
2007.000000, 71.832492
2008.000000, 71.933901
2009.000000, 72.173766
2010.000000, 72.576800
2011.000000, 73.122758
2012.000000, 73.805840
2013.000000, 74.651002
2014.000000, 75.620694
2015.000000, 76.689234
2016.000000, 77.807626
2017.000000, 79.023044
2018.000000, 80.308426
2019.000000, 81.612698
2020.000000, 82.868476
2021.000000, 84.083886
2022.000000, 85.287819
2023.000000, 86.348924
2024.000000, 87.218028
2025.000000, 87.947191
2026.000000, 88.485849
2027.000000, 88.773226
2028.000000, 88.851304
2029.000000, 88.717824
2030.000000, 88.325619
2031.000000, 87.735736
2032.000000, 86.991951
2033.000000, 86.101759
2034.000000, 85.141845
2035.000000, 84.042140
2036.000000, 82.888055
2037.000000, 81.747826
2038.000000, 80.619591
2039.000000, 79.508751
2040.000000, 78.502291
2041.000000, 77.593481
2042.000000, 76.780423
2043.000000, 76.117189
2044.000000, 75.559171
2045.000000, 75.122314
2046.000000, 74.828734
2047.000000, 74.660066
2048.000000, 74.638470
2049.000000, 74.727986
2050.000000, 74.948928
2051.000000, 75.309713
2052.000000, 75.762583
2053.000000, 76.341444
2054.000000, 77.020041
2055.000000, 77.774208
2056.000000, 78.595674
2057.000000, 79.454027
2058.000000, 80.371804
2059.000000, 81.290961
2060.000000, 82.203003
2061.000000, 83.117792
2062.000000, 83.986871
2063.000000, 84.752619
2064.000000, 85.441772
2065.000000, 86.034311
2066.000000, 86.479302
2067.000000, 86.766857
2068.000000, 86.906360
2069.000000, 86.926637
2070.000000, 86.805299
2071.000000, 86.548559
2072.000000, 86.180805
2073.000000, 85.713047
2074.000000, 85.127344
2075.000000, 84.480640
2076.000000, 83.798498
2077.000000, 83.096578
2078.000000, 82.403455
2079.000000, 81.708464
2080.000000, 81.054417
2081.000000, 80.472204
2082.000000, 79.927164
2083.000000, 79.488956
2084.000000, 79.134142
2085.000000, 78.851788
2086.000000, 78.675412
2087.000000, 78.588493
2088.000000, 78.602736
2089.000000, 78.687736
2090.000000, 78.868418
2091.000000, 79.127054
2092.000000, 79.476316
2093.000000, 79.875582
2094.000000, 80.329316
2095.000000, 80.827608
2096.000000, 81.366611
2097.000000, 81.935821
2098.000000, 82.489646
2099.000000, 83.063283
2100.000000, 83.614009
2101.000000, 84.124487
2102.000000, 84.571076
2103.000000, 84.950153
2104.000000, 85.245058
2105.000000, 85.460886
2106.000000, 85.546915
2107.000000, 85.554389
2108.000000, 85.435957
2109.000000, 85.217549
2110.000000, 84.909697
2111.000000, 84.497835
2112.000000, 84.031040
2113.000000, 83.504901
2114.000000, 82.901593
2115.000000, 82.260905
2116.000000, 81.612963
2117.000000, 80.986467
2118.000000, 80.368955
2119.000000, 79.751880
2120.000000, 79.210325
2121.000000, 78.715974
2122.000000, 78.294704
2123.000000, 77.973930
2124.000000, 77.676563
2125.000000, 77.471593
2126.000000, 77.405631
2127.000000, 77.400224
2128.000000, 77.445536
2129.000000, 77.617290
2130.000000, 77.886054
2131.000000, 78.229085
2132.000000, 78.597045
2133.000000, 79.080577
2134.000000, 79.618670
2135.000000, 80.229675
2136.000000, 80.874676
2137.000000, 81.569403
2138.000000, 82.234345
2139.000000, 82.941629
2140.000000, 83.641392
2141.000000, 84.329604
2142.000000, 84.947535
2143.000000, 85.506781
2144.000000, 85.980809
2145.000000, 86.388477
2146.000000, 86.642436
2147.000000, 86.823083
2148.000000, 86.905474
2149.000000, 86.804629
2150.000000, 86.600949
2151.000000, 86.296511
2152.000000, 85.840880
2153.000000, 85.284030
2154.000000, 84.656647
2155.000000, 84.020908
2156.000000, 83.209498
2157.000000, 82.423220
2158.000000, 81.595659
2159.000000, 80.772719
2160.000000, 80.014753
2161.000000, 79.208159
2162.000000, 78.466024
2163.000000, 77.775258
2164.000000, 77.184154
2165.000000, 76.581928
2166.000000, 76.114696
2167.000000, 75.705399
2168.000000, 75.375156
2169.000000, 75.132609
2170.000000, 75.005026
2171.000000, 74.951651
2172.000000, 74.959643
2173.000000, 75.070492
2174.000000, 75.252095
2175.000000, 75.521042
2176.000000, 75.840296
2177.000000, 76.261432
2178.000000, 76.734294
2179.000000, 77.275121
2180.000000, 77.816658
2181.000000, 78.439326
2182.000000, 79.098715
2183.000000, 79.768193
2184.000000, 80.447980
2185.000000, 81.118854
2186.000000, 81.742854
2187.000000, 82.342144
2188.000000, 82.898129
2189.000000, 83.375590
2190.000000, 83.791885
2191.000000, 84.153932
2192.000000, 84.401881
2193.000000, 84.557423
2194.000000, 84.629220
2195.000000, 84.625580
2196.000000, 84.546958
2197.000000, 84.401093
2198.000000, 84.117674
2199.000000, 83.829230
2200.000000, 83.479872
2200.900000, 83.138733
2201.710000, 82.797593
2202.510000, 82.487853
2203.320000, 82.222214
2204.120000, 82.010574
2204.920000, 81.837434
2205.730000, 81.707795
2206.530000, 81.641355
2207.330000, 81.639015
2208.140000, 81.682476
2208.940000, 81.787836
2209.740000, 81.944996
2210.550000, 82.145457
2211.350000, 82.403517
2212.150000, 82.715677
2212.960000, 83.082638
2213.760000, 83.490698
2214.560000, 83.927458
2215.370000, 84.395619
2216.170000, 84.883379
2216.980000, 85.395639
2217.780000, 85.939900
2218.580000, 86.503360
2219.390000, 87.073620
2220.190000, 87.640081
2220.990000, 88.200841
2221.800000, 88.746001
2222.600000, 89.254162
2223.400000, 89.725022
2224.210000, 90.160682
2225.010000, 90.537343
2225.810000, 90.858803
2226.620000, 91.124863
2227.420000, 91.315924
2228.220000, 91.426484
2229.030000, 91.472644
2229.830000, 91.451005
2230.640000, 91.340365
2231.440000, 91.154125
2232.240000, 90.889086
2233.050000, 90.539046
2233.850000, 90.117606
2234.650000, 89.634967
2235.460000, 89.085427
2236.260000, 88.486987
2237.060000, 87.837548
2237.870000, 87.128208
2238.670000, 86.389168
2239.470000, 85.642229
2240.280000, 84.879289
2241.080000, 84.115849
2241.890000, 83.353710
2242.690000, 82.584270
2243.490000, 81.815330
2244.300000, 81.064691
2245.100000, 80.369751
2245.900000, 79.716211
2246.710000, 79.087272
2247.510000, 78.497232
2248.310000, 77.956792
2249.120000, 77.473653
2249.920000, 77.037813
2250.720000, 76.653073
2251.530000, 76.346934
2252.330000, 76.102094
2253.130000, 75.900254
2253.940000, 75.760115
2254.740000, 75.694075
2255.550000, 75.694935
2256.350000, 75.764496
2257.150000, 75.890756
2257.960000, 76.074316
2258.760000, 76.333877
2259.560000, 76.652737
2260.370000, 77.024898
2261.170000, 77.452058
2261.970000, 77.927318
2262.780000, 78.464479
2263.580000, 79.047839
2264.380000, 79.663799
2265.190000, 80.310260
2265.990000, 80.983820
2266.800000, 81.696080
2267.600000, 82.425841
2268.400000, 83.154701
2269.210000, 83.894561
2270.010000, 84.631922
2270.810000, 85.359582
2271.620000, 86.072942
2272.420000, 86.748103
2273.220000, 87.380263
2274.030000, 87.964323
2274.830000, 88.494784
2275.630000, 88.961044
2276.440000, 89.358704
2277.240000, 89.676665
2278.040000, 89.906325
2278.850000, 90.058285
2279.650000, 90.132946
2280.460000, 90.121606
2281.260000, 90.010366
2282.060000, 89.807427
2282.870000, 89.524287
2283.670000, 89.152947
2284.470000, 88.707408
2285.280000, 88.197968
2286.080000, 87.619828
2286.880000, 86.992689
2287.690000, 86.317349
2288.490000, 85.598409
2289.290000, 84.848770
2290.100000, 84.068530
2290.900000, 83.268090
2291.700000, 82.467351
2292.510000, 81.671711
2293.310000, 80.881071
2294.120000, 80.102232
2294.920000, 79.342992
2295.720000, 78.632152
2296.530000, 77.959913
2297.330000, 77.312673
2298.130000, 76.702633
2298.940000, 76.141594
2299.740000, 75.637154
2300.540000, 75.181114
2301.350000, 74.778075
2302.150000, 74.433635
2302.950000, 74.159695
2303.760000, 73.946256
2304.560000, 73.787116
2305.370000, 73.673276
2306.170000, 73.623437
2306.970000, 73.656697
2307.780000, 73.744857
2308.580000, 73.900918
2309.380000, 74.107778
2310.190000, 74.361338
2310.990000, 74.687899
2311.790000, 75.075659
2312.600000, 75.512219
2313.400000, 75.990980
2314.200000, 76.528340
2315.010000, 77.114200
2315.810000, 77.747861
2316.610000, 78.410821
2317.420000, 79.100881
2318.220000, 79.825942
2319.030000, 80.573502
2319.830000, 81.336762
2320.630000, 82.106723
2321.440000, 82.878983
2322.240000, 83.651143
2323.040000, 84.411604
2323.850000, 85.155864
2324.650000, 85.875724
2325.450000, 86.561285
2326.260000, 87.207845
2327.060000, 87.807005
2327.860000, 88.349566
2328.670000, 88.828426
2329.470000, 89.253886
2330.270000, 89.598947
2331.080000, 89.863107
2331.880000, 90.042767
2332.690000, 90.167128
2333.490000, 90.214388
2334.290000, 90.182748
2335.100000, 90.062509
2335.900000, 89.870169
2336.700000, 89.608329
2337.510000, 89.276490
2338.310000, 88.876150
2339.110000, 88.421810
2339.920000, 87.920771
2340.720000, 87.374531
2341.520000, 86.802891
2342.330000, 86.193952
2343.130000, 85.551412
2343.940000, 84.901072
2344.740000, 84.249033
2345.540000, 83.591093
2346.350000, 82.934453
2347.150000, 82.286714
2347.950000, 81.652474
2348.760000, 81.053734
2349.560000, 80.480995
2350.360000, 79.936155
2351.170000, 79.421815
2351.970000, 78.941676
2352.770000, 78.496536
2353.580000, 78.106596
2354.380000, 77.754757
2355.180000, 77.453917
2355.990000, 77.210577
2356.790000, 77.031538
2357.600000, 76.886498
2358.400000, 76.784558
2359.200000, 76.732719
2360.010000, 76.748079
2360.810000, 76.813940
2361.610000, 76.939843
2362.420000, 77.107046
2363.220000, 77.332450
2364.020000, 77.603953
2364.830000, 77.919457
2365.630000, 78.270260
2366.430000, 78.672463
2367.240000, 79.115367
2368.040000, 79.587670
2368.850000, 80.083874
2369.650000, 80.612577
2370.450000, 81.171481
2371.260000, 81.763884
2372.060000, 82.367387
2372.860000, 82.974291
2373.670000, 83.588194
2374.470000, 84.212198
2375.270000, 84.830801
2376.080000, 85.437605
2376.880000, 86.031208
2377.680000, 86.610411
2378.490000, 87.163415
2379.290000, 87.680718
2380.090000, 88.165222
2380.900000, 88.606925
2381.700000, 88.999728
2382.510000, 89.357832
2383.310000, 89.662735
2384.110000, 89.912339
2384.920000, 90.088942
2385.720000, 90.222546
2386.520000, 90.293949
2387.330000, 90.307452
2388.130000, 90.269356
2388.930000, 90.175759
2389.740000, 90.021363
2390.540000, 89.813566
2391.340000, 89.561770
2392.150000, 89.262873
2392.950000, 88.929276
2393.750000, 88.559780
2394.560000, 88.155383
2395.360000, 87.715887
2396.170000, 87.262890
2396.970000, 86.799594
2397.770000, 86.319497
2398.580000, 85.826800
2399.380000, 85.337304
2400.180000, 84.855907
2400.990000, 84.378711
2401.790000, 83.905014
2402.590000, 83.453517
2403.400000, 83.029321
2404.200000, 82.634224
2405.000000, 82.260528
2405.810000, 81.907831
2406.610000, 81.588335
2407.420000, 81.307538
2408.220000, 81.058941
2409.020000, 80.845845
2409.830000, 80.678448
2410.630000, 80.537652
2411.430000, 80.431455
2412.240000, 80.368859
2413.040000, 80.356762
2413.840000, 80.382565
2414.650000, 80.436169
2415.450000, 80.538172
2416.250000, 80.672276
2417.060000, 80.842379
2417.860000, 81.050582
2418.660000, 81.290686
2419.470000, 81.565289
2420.270000, 81.865093
2421.080000, 82.193496
2421.880000, 82.545800
2422.680000, 82.909603
2423.490000, 83.284206
2424.290000, 83.679510
2425.090000, 84.096413
2425.900000, 84.522517
2426.700000, 84.943720
2427.500000, 85.363524
2428.310000, 85.784427
2429.110000, 86.191830
2429.910000, 86.578634
2430.720000, 86.949537
2431.520000, 87.313141
2432.320000, 87.657544
2433.130000, 87.967648
2433.930000, 88.236351
2434.740000, 88.473754
2435.540000, 88.687258
2436.340000, 88.843261
2437.150000, 88.941965
2437.950000, 89.004968
2438.750000, 89.032171
2439.560000, 89.019875
2440.360000, 88.957578
2441.160000, 88.853982
2441.970000, 88.708085
2442.770000, 88.513389
2443.570000, 88.283692
2444.380000, 88.009595
2445.180000, 87.696799
2445.990000, 87.363902
2446.790000, 86.993306
2447.590000, 86.585309
2448.400000, 86.160113
2449.200000, 85.727516
2450.000000, 85.280719
2450.810000, 84.819623
2451.610000, 84.341326
2452.410000, 83.848530
2453.220000, 83.368633
2454.020000, 82.903537
2454.820000, 82.446740
2455.630000, 81.998943
2456.430000, 81.566247
2457.230000, 81.154650
2458.040000, 80.759954
2458.840000, 80.384857
2459.650000, 80.032860
2460.450000, 79.710964
2461.250000, 79.431567
2462.060000, 79.180071
2462.860000, 78.956374
2463.660000, 78.770078
2464.470000, 78.617281
2465.270000, 78.498684
2466.070000, 78.416588
2466.880000, 78.373391
2467.680000, 78.376995
2468.480000, 78.411198
2469.290000, 78.472602
2470.090000, 78.579705
2470.890000, 78.724408
2471.700000, 78.914612
2472.500000, 79.146415
2473.310000, 79.392519
2474.110000, 79.663822
2474.910000, 79.971325
2475.720000, 80.311229
2476.520000, 80.696732
2477.320000, 81.108136
2478.130000, 81.531439
2478.930000, 81.978343
2479.730000, 82.443046
2480.540000, 82.915349
2481.340000, 83.395653
2482.140000, 83.890456
2482.950000, 84.400660
2483.750000, 84.927463
2484.560000, 85.451367
2485.360000, 85.942970
2486.160000, 86.426673
2486.970000, 86.921177
2487.770000, 87.404980
2488.570000, 87.854084
2489.380000, 88.274487
2490.180000, 88.676991
2490.980000, 89.051394
2491.790000, 89.394897
2492.590000, 89.694701
2493.390000, 89.951004
2494.200000, 90.187308
2495.000000, 90.376711
2495.800000, 90.500814
2496.610000, 90.588718
2497.410000, 90.637621
2498.220000, 90.645925
2499.020000, 90.611528
2499.820000, 90.518332
2500.630000, 90.387435
2501.430000, 90.227138
2502.230000, 90.037842
2503.040000, 89.808945
2503.840000, 89.521949
2504.640000, 89.209052
2505.450000, 88.891256
2506.250000, 88.525859
2507.050000, 88.104662
2507.860000, 87.687966
2508.660000, 87.280069
2509.470000, 86.867573
2510.270000, 86.452176
2511.070000, 86.022580
2511.880000, 85.572083
2512.680000, 85.126086
2513.480000, 84.699890
2514.290000, 84.310093
2515.090000, 83.936997
2515.890000, 83.555700
2516.700000, 83.183703
2517.500000, 82.824707
2518.300000, 82.485610
2519.110000, 82.191514
2519.910000, 81.913917
2520.710000, 81.643521
2521.520000, 81.413024
2522.320000, 81.237727
2523.130000, 81.113131
2523.930000, 81.027934
2524.730000, 80.936038
2525.540000, 80.856941
2526.340000, 80.824245
2527.140000, 80.836148
2527.950000, 80.873051
2528.750000, 80.940255
2529.550000, 81.052758
2530.360000, 81.209062
2531.160000, 81.425065
2531.960000, 81.683668
2532.770000, 81.920572
2533.570000, 82.138775
2534.370000, 82.361279
2535.180000, 82.670182
2535.980000, 83.076386
2536.790000, 83.450089
2537.590000, 83.726292
2538.390000, 84.046896
2539.200000, 84.440999
2540.000000, 84.847903
2540.800000, 85.265106
2541.610000, 85.728010
2542.410000, 86.242913
2543.210000, 86.776916
2544.020000, 87.214620
2544.820000, 87.576523
2545.620000, 87.900127
2546.430000, 88.221330
2547.230000, 88.645534
2548.040000, 89.145837
2548.840000, 89.479140
2549.640000, 89.666244
2550.450000, 89.918747
2551.250000, 90.220751
2552.050000, 90.465654
2552.860000, 90.686357
2553.660000, 90.789661
2554.460000, 90.768064
2555.270000, 90.772468
2556.070000, 90.786771
2556.870000, 90.771275
2557.680000, 90.725878
2558.480000, 90.673281
2559.280000, 90.663085
2560.090000, 90.726688
2560.890000, 90.733292
2561.700000, 90.534095
2562.500000, 90.209499
2563.300000, 89.835802
2564.110000, 89.496105
2564.910000, 89.053509
2565.710000, 88.492012
2566.520000, 88.024116
2567.320000, 87.668619
2568.120000, 87.382323
2568.930000, 87.146826
2569.730000, 86.735129
2570.530000, 86.057833
2571.340000, 85.509236
2572.140000, 85.169440
2572.940000, 84.927243
2573.750000, 84.523846
2574.550000, 84.021050
2575.360000, 83.635853
2576.160000, 83.371857
2576.960000, 83.021160
2577.770000, 82.461164
2578.570000, 82.014367
2579.370000, 81.758070
2580.180000, 81.612874
2580.980000, 81.512577
2581.780000, 81.293681
2582.590000, 81.142884
2583.390000, 81.173688
2584.190000, 81.085391
2585.000000, 80.715194
2585.800000, 80.552398
2586.610000, 80.617401
2587.410000, 80.764505
2588.210000, 80.780308
2589.020000, 80.734311
2589.820000, 80.708815
2590.620000, 80.708818
2591.430000, 80.816722
2592.230000, 81.100425
2593.030000, 81.450129
2593.840000, 81.784432
2594.640000, 82.285935
2595.440000, 82.912139
2596.250000, 83.026742
2597.050000, 83.035446
2597.850000, 83.147849
2598.660000, 83.356953
2599.460000, 83.667056
2600.270000, 84.074159
2601.070000, 84.576163
2601.870000, 85.134866
2602.680000, 85.608270
2603.480000, 86.139773
2604.280000, 86.771377
2605.090000, 87.296080
2605.890000, 87.716083
2606.690000, 88.024687
2607.500000, 88.296890
2608.300000, 88.560894
2609.100000, 88.835297
2609.910000, 89.198700
2610.710000, 89.498204
2611.520000, 89.728707
2612.320000, 90.037911
2613.120000, 90.399914
2613.930000, 90.643218
2614.730000, 90.811621
2615.530000, 91.039324
2616.340000, 91.399728
2617.140000, 91.748531
2617.940000, 91.674535
2618.750000, 91.477738
2619.550000, 91.441742
2620.350000, 91.427845
2621.160000, 91.139648
2621.960000, 90.781052
2622.760000, 90.503455
2623.570000, 90.257559
2624.370000, 90.033762
2625.180000, 89.871166
2625.980000, 89.773869
2626.780000, 89.522572
2627.590000, 88.984976
2628.390000, 88.620879
2629.190000, 88.489383
2630.000000, 88.402186
2630.800000, 87.859189
2631.600000, 87.034193
2632.410000, 86.556496
2633.210000, 86.203000
2634.010000, 85.688403
2634.820000, 85.015207
2635.620000, 84.466910
2636.420000, 84.030013
2637.230000, 83.615417
2638.030000, 83.213520
2638.840000, 82.821324
2639.640000, 82.450027
2640.440000, 82.138531
2641.250000, 81.883834
2642.050000, 81.591537
2642.850000, 81.203541
2643.660000, 80.859144
2644.460000, 80.671448
2645.260000, 80.575351
2646.070000, 80.416454
2646.870000, 80.135558
2647.670000, 79.877561
2648.480000, 79.715665
2649.280000, 79.624068
2650.090000, 79.598572
2650.890000, 79.649475
2651.690000, 79.786978
2652.500000, 79.952682
2653.300000, 80.000385
2654.100000, 80.025789
2654.910000, 80.170492
2655.710000, 80.387796
2656.510000, 80.537999
2657.320000, 80.680002
2658.120000, 80.906706
2658.920000, 81.245309
2659.730000, 81.724913
2660.530000, 82.173816
2661.330000, 82.470820
2662.140000, 82.816223
2662.940000, 83.202126
2663.750000, 83.613030
2664.550000, 84.208333
2665.350000, 85.129237
2666.160000, 85.876040
2666.960000, 86.310043
2667.760000, 86.666647
2668.570000, 86.950150
2669.370000, 87.252454
2670.170000, 87.759457
2670.980000, 88.520761
2671.780000, 88.935264
2672.580000, 89.273367
2673.390000, 89.730771
2674.190000, 90.212174
2674.990000, 90.719978
2675.800000, 91.365781
2676.600000, 92.124385
2677.410000, 92.702388
2678.210000, 92.853191
2679.010000, 92.894495
2679.820000, 92.981298
2680.620000, 92.987202
2681.420000, 92.983905
2682.230000, 93.075309
2683.030000, 93.234512
2683.830000, 93.262615
2684.640000, 93.049419
2685.440000, 92.798422
2686.240000, 92.517326
2687.050000, 92.021829
2687.850000, 91.472132
2688.660000, 90.939836
2689.460000, 90.275239
2690.260000, 89.581543
2691.070000, 88.987246
2691.870000, 88.459650
2692.670000, 88.061353
2693.480000, 87.726956
2694.280000, 87.147560
2695.080000, 86.349963
2695.890000, 85.419167
2696.690000, 84.399170
2697.490000, 83.562674
2698.300000, 82.829277
2699.100000, 82.096080
2699.900000, 81.430684
2700.710000, 80.793087
2701.510000, 79.898491
2702.320000, 78.923894
2703.120000, 78.185397
2703.920000, 77.542001
2704.730000, 76.900704
2705.530000, 76.252008
2706.330000, 75.619711
2707.140000, 75.068515
2707.940000, 74.660518
2708.740000, 74.328121
2709.550000, 73.912125
2710.350000, 73.393028
2711.150000, 72.742232
2711.960000, 72.026735
2712.760000, 71.514539
2713.570000, 71.151742
2714.370000, 70.810845
2715.170000, 70.504949
2715.980000, 70.283252
2716.780000, 70.159856
2717.580000, 70.082159
2718.390000, 70.001763
2719.190000, 69.987766
2719.990000, 70.128569
2720.800000, 70.222773
2721.600000, 69.984976
2722.400000, 69.788780
2723.210000, 69.816183
2724.010000, 70.039486
2724.810000, 70.347890
2725.620000, 70.439393
2726.420000, 70.390997
2727.230000, 70.422900
2728.030000, 70.565204
2728.830000, 70.792307
2729.640000, 71.073010
2730.440000, 71.394414
2731.240000, 71.758217
2732.050000, 72.159221
2732.850000, 72.569424
2733.650000, 72.985128
2734.460000, 73.493831
2735.260000, 74.102134
2736.060000, 74.591238
2736.870000, 74.949941
2737.670000, 75.358545
2738.470000, 75.946248
2739.280000, 76.867051
2740.080000, 77.887355
2740.890000, 78.490758
2741.690000, 78.890462
2742.490000, 79.181565
2743.300000, 79.397669
2744.100000, 79.689372
2744.900000, 80.133075
2745.710000, 80.665679
2746.510000, 81.159282
2747.310000, 81.607186
2748.120000, 82.092989
2748.920000, 82.593593
2749.720000, 83.034096
2750.530000, 83.444899
2751.330000, 83.912303
2752.140000, 84.392606
2752.940000, 84.756810
2753.740000, 85.061213
2754.550000, 85.471317
2755.350000, 86.033120
2756.150000, 86.291923
2756.960000, 86.182027
2757.760000, 86.078530
2758.560000, 86.010134
2759.370000, 85.963037
2760.170000, 85.940840
2760.970000, 85.937144
2761.780000, 85.936247
2762.580000, 85.895851
2763.380000, 85.749454
2764.190000, 85.462458
2764.990000, 85.156461
2765.800000, 84.929264
2766.600000, 84.724568
2767.400000, 84.433271
2768.210000, 84.020075
2769.010000, 83.618078
2769.810000, 83.356682
2770.620000, 83.167485
2771.420000, 82.916688
2772.220000, 82.530492
2773.030000, 82.035195
2773.830000, 81.591199
2774.630000, 81.245902
2775.440000, 80.957706
2776.240000, 80.696809
2777.040000, 80.416512
2777.850000, 80.076616
2778.650000, 79.694119
2779.460000, 79.318323
2780.260000, 79.004626
2781.060000, 78.745529
2781.870000, 78.471533
2782.670000, 78.150236
2783.470000, 77.793840
2784.280000, 77.475243
2785.080000, 77.264247
2785.880000, 77.158850
2786.690000, 77.117653
2787.490000, 77.034657
2788.290000, 76.806960
2789.100000, 76.530364
2789.900000, 76.337067
2790.710000, 76.218671
2791.510000, 76.136174
2792.310000, 76.095277
2793.120000, 76.100881
2793.920000, 76.130284
2794.720000, 76.183788
2795.530000, 76.276891
2796.330000, 76.400794
2797.130000, 76.542998
2797.940000, 76.696501
2798.740000, 76.860005
2799.540000, 77.056908
2800.350000, 77.311212
2801.150000, 77.623115
2801.950000, 78.012518
2802.760000, 78.517122
2803.560000, 79.048825
2804.370000, 79.403129
2805.170000, 79.596632
2805.970000, 79.806236
2806.780000, 80.108039
2807.580000, 80.468042
2808.380000, 80.865246
2809.190000, 81.282449
2809.990000, 81.686953
2810.790000, 82.096356
2811.600000, 82.537860
2812.400000, 83.001863
2813.200000, 83.489166
2814.010000, 84.018270
2814.810000, 84.575073
2815.610000, 85.088777
2816.420000, 85.515780
2817.220000, 85.917883
2818.030000, 86.375787
2818.830000, 86.904890
2819.630000, 87.453994
2820.440000, 87.952697
2821.240000, 88.362101
2822.040000, 88.676104
2822.850000, 88.935407
2823.650000, 89.191711
2824.450000, 89.465114
2825.260000, 89.748918
2826.060000, 90.033121
2826.860000, 90.319325
2827.670000, 90.583328
2828.470000, 90.769031
2829.280000, 90.876835
2830.080000, 90.965338
2830.880000, 91.062742
2831.690000, 91.159345
2832.490000, 91.242249
2833.290000, 91.305252
2834.100000, 91.333355
2834.900000, 91.292759
2835.700000, 91.175762
2836.510000, 91.032666
2837.310000, 90.903469
2838.110000, 90.739672
2838.920000, 90.468176
2839.720000, 90.132179
2840.520000, 89.820283
2841.330000, 89.536986
2842.130000, 89.238890
2842.940000, 88.909593
2843.740000, 88.562696
2844.540000, 88.212900
2845.350000, 87.868103
2846.150000, 87.525107
2846.950000, 87.179110
2847.760000, 86.836014
2848.560000, 86.494217
2849.360000, 86.117720
2850.170000, 85.688724
2850.970000, 85.260827
2851.770000, 84.885331
2852.580000, 84.564634
2853.380000, 84.277237
2854.190000, 83.977841
2854.990000, 83.620044
2855.790000, 83.215648
2856.600000, 82.820351
2857.400000, 82.469255
2858.200000, 82.168558
2859.010000, 81.908761
2859.810000, 81.665165
2860.610000, 81.415468
2861.420000, 81.164372
2862.220000, 80.932975
2863.020000, 80.735079
2863.830000, 80.569582
2864.630000, 80.430285
2865.430000, 80.320789
2866.240000, 80.240492
2867.040000, 80.169296
2867.850000, 80.095799
2868.650000, 80.034603
2869.450000, 80.005006
2870.260000, 80.020809
2871.060000, 80.085213
2871.860000, 80.173516
2872.670000, 80.251820
2873.470000, 80.319423
2874.270000, 80.400326
2875.080000, 80.511230
2875.880000, 80.657733
2876.680000, 80.843737
2877.490000, 81.062440
2878.290000, 81.290044
2879.090000, 81.515547
2879.900000, 81.754950
2880.700000, 82.021154
2881.510000, 82.310257
2882.310000, 82.617461
2883.110000, 82.943464
2883.920000, 83.285368
2884.720000, 83.631771
2885.520000, 83.975974
2886.330000, 84.329378
2887.130000, 84.705281
2887.930000, 85.097985
2888.740000, 85.487588
2889.540000, 85.864192
2890.340000, 86.233695
2891.150000, 86.601998
2891.950000, 86.971402
2892.760000, 87.345205
2893.560000, 87.724009
2894.360000, 88.099312
2895.170000, 88.461715
2895.970000, 88.811919
2896.770000, 89.154422
2897.580000, 89.487826
2898.380000, 89.811829
2899.180000, 90.137233
2899.990000, 90.476936
2900.790000, 90.807139
2901.590000, 91.065943
2902.400000, 91.246446
2903.200000, 91.405050
2904.000000, 91.573353
2904.810000, 91.730957
2905.610000, 91.848660
2906.420000, 91.927763
2907.220000, 91.986667
2908.020000, 92.031170
2908.830000, 92.055274
2909.630000, 92.053677
2910.430000, 92.022480
2911.240000, 91.959084
2912.040000, 91.865487
2912.840000, 91.747791
2913.650000, 91.609294
2914.450000, 91.444498
2915.250000, 91.249201
2916.060000, 91.028604
2916.860000, 90.788508
2917.660000, 90.528111
2918.470000, 90.248015
2919.270000, 89.955118
2920.080000, 89.656322
2920.880000, 89.356525
2921.680000, 89.057328
2922.490000, 88.750132
2923.290000, 88.413435
2924.090000, 88.033139
2924.900000, 87.625342
2925.700000, 87.218846
2926.500000, 86.824749
2927.310000, 86.441352
2928.110000, 86.067056
2928.910000, 85.699459
2929.720000, 85.333163
2930.520000, 84.965966
2931.330000, 84.602469
2932.130000, 84.249773
2932.930000, 83.908876
2933.740000, 83.573180
2934.540000, 83.242383
2935.340000, 82.923487
2936.150000, 82.621790
2936.950000, 82.337693
2937.750000, 82.069897
2938.560000, 81.817000
2939.360000, 81.577704
2940.160000, 81.351907
2940.970000, 81.141711
2941.770000, 80.951914
2942.570000, 80.783717
2943.380000, 80.631521
2944.180000, 80.490724
2944.990000, 80.368428
2945.790000, 80.277631
2946.590000, 80.219835
2947.400000, 80.180038
2948.200000, 80.141141
2949.000000, 80.104145
2949.810000, 80.085348
2950.610000, 80.096052
2951.410000, 80.136655
2952.220000, 80.204958
2953.020000, 80.300162
2953.820000, 80.417165
2954.630000, 80.546469
2955.430000, 80.685372
2956.240000, 80.839476
2957.040000, 81.014179
2957.840000, 81.208782
2958.650000, 81.420586
2959.450000, 81.650989
2960.250000, 81.903193
2961.060000, 82.175296
2961.860000, 82.461100
2962.660000, 82.756103
2963.470000, 83.060806
2964.270000, 83.378510
2965.070000, 83.712513
2965.880000, 84.062617
2966.680000, 84.425220
2967.480000, 84.795723
2968.290000, 85.172727
2969.090000, 85.556830
2969.900000, 85.945334
2970.700000, 86.334137
2971.500000, 86.720541
2972.310000, 87.101944
2973.110000, 87.481247
2973.910000, 87.865651
2974.720000, 88.255054
2975.520000, 88.641358
2976.320000, 89.017061
2977.130000, 89.379765
2977.930000, 89.732468
2978.730000, 90.080571
2979.540000, 90.423275
2980.340000, 90.751578
2981.140000, 91.058482
2981.950000, 91.347985
2982.750000, 91.626089
2983.560000, 91.891892
2984.360000, 92.139495
2985.160000, 92.364399
2985.970000, 92.565002
2986.770000, 92.742406
2987.570000, 92.898709
2988.380000, 93.036112
2989.180000, 93.154016
2989.980000, 93.249419
2990.790000, 93.320223
2991.590000, 93.366626
2992.390000, 93.388430
2993.200000, 93.384733
2994.000000, 93.355936
2994.810000, 93.304540
2995.610000, 93.233043
2996.410000, 93.138047
2997.220000, 93.011350
2998.020000, 92.853354
2998.820000, 92.673757
2999.630000, 92.480560
3000.430000, 92.275664
3001.230000, 92.056667
3002.040000, 91.820971
3002.840000, 91.569174
3003.640000, 91.305778
3004.450000, 91.035881
3005.250000, 90.760084
3006.050000, 90.472888
3006.860000, 90.169791
3007.660000, 89.853395
3008.470000, 89.526398
3009.270000, 89.191601
3010.070000, 88.854105
3010.880000, 88.519708
3011.680000, 88.191912
3012.480000, 87.869915
3013.290000, 87.549419
3014.090000, 87.227222
3014.890000, 86.905425
3015.700000, 86.591429
3016.500000, 86.292432
3017.300000, 86.004336
3018.110000, 85.720839
3018.910000, 85.443643
3019.710000, 85.178846
3020.520000, 84.929949
3021.320000, 84.693653
3022.130000, 84.462956
3022.930000, 84.233960
3023.730000, 84.011663
3024.540000, 83.806366
3025.340000, 83.623370
3026.140000, 83.461973
3026.950000, 83.316077
3027.750000, 83.182480
3028.550000, 83.062084
3029.360000, 82.958287
3030.160000, 82.874190
3030.960000, 82.811394
3031.770000, 82.768597
3032.570000, 82.742201
3033.380000, 82.728804
3034.180000, 82.729908
3034.980000, 82.750811
3035.790000, 82.793614
3036.590000, 82.859118
3037.390000, 82.942021
3038.200000, 83.033925
3039.000000, 83.130228
3039.800000, 83.234832
3040.610000, 83.355735
3041.410000, 83.496238
3042.210000, 83.654542
3043.020000, 83.835045
3043.820000, 84.037549
3044.620000, 84.255652
3045.430000, 84.482555
3046.230000, 84.716359
3047.040000, 84.959462
3047.840000, 85.214366
3048.640000, 85.480169
3049.450000, 85.754273
3050.250000, 86.038776
3051.050000, 86.342179
3051.860000, 86.659983
3052.660000, 86.979786
3053.460000, 87.296690
3054.270000, 87.613893
3055.070000, 87.932897
3055.870000, 88.250300
3056.680000, 88.563403
3057.480000, 88.875807
3058.280000, 89.188610
3059.090000, 89.498914
3059.890000, 89.806517
3060.700000, 90.111520
3061.500000, 90.413724
3062.300000, 90.711527
3063.110000, 91.002531
3063.910000, 91.284034
3064.710000, 91.554438
3065.520000, 91.812841
3066.320000, 92.060344
3067.120000, 92.293448
3067.930000, 92.509851
3068.730000, 92.711755
3069.530000, 92.901858
3070.340000, 93.079762
3071.140000, 93.241165
3071.950000, 93.383268
3072.750000, 93.501072
3073.550000, 93.592475
3074.360000, 93.659679
3075.160000, 93.707782
3075.960000, 93.738886
3076.770000, 93.751989
3077.570000, 93.745192
3078.370000, 93.719596
3079.180000, 93.678299
3079.980000, 93.626703
3080.780000, 93.558406
3081.590000, 93.460609
3082.390000, 93.329713
3083.190000, 93.173716
3084.000000, 93.004220
3084.800000, 92.824523
3085.610000, 92.627427
3086.410000, 92.413630
3087.210000, 92.188233
3088.020000, 91.952937
3088.820000, 91.706340
3089.620000, 91.446944
3090.430000, 91.174547
3091.230000, 90.892551
3092.030000, 90.604354
3092.840000, 90.307257
3093.640000, 90.001261
3094.440000, 89.689964
3095.250000, 89.375368
3096.050000, 89.057171
3096.860000, 88.735375
3097.660000, 88.412478
3098.460000, 88.089881
3099.270000, 87.766685
3100.070000, 87.444188
3100.870000, 87.124492
3101.680000, 86.810095
3102.480000, 86.503598
3103.280000, 86.207402
3104.090000, 85.924105
3104.890000, 85.651009
3105.690000, 85.378312
3106.500000, 85.103516
3107.300000, 84.832419
3108.100000, 84.574522
3108.910000, 84.336526
3109.710000, 84.119229
3110.520000, 83.917033
3111.320000, 83.717536
3112.120000, 83.520640
3112.930000, 83.333643
3113.730000, 83.163746
3114.530000, 83.012250
3115.340000, 82.873553
3116.140000, 82.745557
3116.940000, 82.633860
3117.750000, 82.541563
3118.550000, 82.465667
3119.350000, 82.402170
3120.160000, 82.348774
3120.960000, 82.307877
3121.760000, 82.287181
3122.570000, 82.282984
3123.370000, 82.293987
3124.180000, 82.320791
3124.980000, 82.365094
3125.780000, 82.427998
3126.590000, 82.507301
3127.390000, 82.595805
3128.190000, 82.689208
3129.000000, 82.791711
3129.800000, 82.907415
3130.600000, 83.038118
3131.410000, 83.183522
3132.210000, 83.343625
3133.010000, 83.517929
3133.820000, 83.704932
3134.620000, 83.904235
3135.430000, 84.113439
3136.230000, 84.330142
3137.030000, 84.553146
3137.840000, 84.788549
3138.640000, 85.039352
3139.440000, 85.300356
3140.250000, 85.564059
3141.050000, 85.825763
3141.850000, 86.086066
3142.660000, 86.352070
3143.460000, 86.628273
3144.260000, 86.911476
3145.070000, 87.200980
3145.870000, 87.494983
3146.670000, 87.788387
3147.480000, 88.072690
3148.280000, 88.341294
3149.090000, 88.605497
3149.890000, 88.869900
3150.690000, 89.135204
3151.500000, 89.399607
3152.300000, 89.660211
3153.100000, 89.911314
3153.910000, 90.151618
3154.710000, 90.382721
3155.510000, 90.605524
3156.320000, 90.819328
3157.120000, 91.022231
3157.920000, 91.211135
3158.730000, 91.387438
3159.530000, 91.551141
3160.330000, 91.699945
3161.140000, 91.832048
3161.940000, 91.946652
3162.750000, 92.042255
3163.550000, 92.120259
3164.350000, 92.182962
3165.160000, 92.230865
3165.960000, 92.263869
3166.760000, 92.281472
3167.570000, 92.280476
3168.370000, 92.261779
3169.170000, 92.228283
3169.980000, 92.179586
3170.780000, 92.114489
3171.580000, 92.031693
3172.390000, 91.927796
3173.190000, 91.803700
3174.000000, 91.660803
3174.800000, 91.501506
3175.600000, 91.329310
3176.410000, 91.147813
3177.210000, 90.952517
3178.010000, 90.742820
3178.820000, 90.520624
3179.620000, 90.288527
3180.420000, 90.048430
3181.230000, 89.799534
3182.030000, 89.539537
3182.830000, 89.272941
3183.640000, 89.002044
3184.440000, 88.727648
3185.240000, 88.449551
3186.050000, 88.166054
3186.850000, 87.877858
3187.660000, 87.586361
3188.460000, 87.292965
3189.260000, 86.999968
3190.070000, 86.711072
3190.870000, 86.425875
3191.670000, 86.135578
3192.480000, 85.840282
3193.280000, 85.544885
3194.080000, 85.256189
3194.890000, 84.979392
3195.690000, 84.711995
3196.490000, 84.453199
3197.300000, 84.202202
3198.100000, 83.957806
3198.910000, 83.717709
3199.710000, 83.486813
3200.510000, 83.270516
3201.320000, 83.067419
3202.120000, 82.872923
3202.920000, 82.680826
3203.730000, 82.492930
3204.530000, 82.321333
3205.330000, 82.167337
3206.140000, 82.028040
3206.940000, 81.899743
3207.740000, 81.781947
3208.550000, 81.679450
3209.350000, 81.588454
3210.150000, 81.506457
3210.960000, 81.432661
3211.760000, 81.370364
3212.570000, 81.327767
3213.370000, 81.301271
3214.170000, 81.289974
3214.980000, 81.293678
3215.780000, 81.312881
3216.580000, 81.351284
3217.390000, 81.402888
3218.190000, 81.465891
3218.990000, 81.539595
3219.800000, 81.623498
3220.600000, 81.725202
3221.400000, 81.845505
3222.210000, 81.983908
3223.010000, 82.138712
3223.810000, 82.307115
3224.620000, 82.486719
3225.420000, 82.671422
3226.230000, 82.861826
3227.030000, 83.060229
3227.830000, 83.270532
3228.640000, 83.502536
3229.440000, 83.751039
3230.240000, 84.009743
3231.050000, 84.274046
3231.850000, 84.540749
3232.650000, 84.815453
3233.460000, 85.101956
3234.260000, 85.399360
3235.060000, 85.705863
3235.870000, 86.018767
3236.670000, 86.336770
3237.480000, 86.659673
3238.280000, 86.988377
3239.080000, 87.322180
3239.890000, 87.659084
3240.690000, 87.996287
3241.490000, 88.335491
3242.300000, 88.677494
3243.100000, 89.022197
3243.900000, 89.368201
3244.710000, 89.711604
3245.510000, 90.050708
3246.310000, 90.384511
3247.120000, 90.712315
3247.920000, 91.031918
3248.720000, 91.342721
3249.530000, 91.645225
3250.330000, 91.938428
3251.140000, 92.221332
3251.940000, 92.492435
3252.740000, 92.755438
3253.550000, 93.009542
3254.350000, 93.253245
3255.150000, 93.484749
3255.960000, 93.700152
3256.760000, 93.904056
3257.560000, 94.095759
3258.370000, 94.275462
3259.170000, 94.442066
3259.970000, 94.591569
3260.780000, 94.721473
3261.580000, 94.829376
3262.380000, 94.914380
3263.190000, 94.971483
3263.990000, 95.004586
3264.800000, 95.019290
3265.600000, 95.019493
3266.400000, 95.009097
3267.210000, 94.983100
3268.010000, 94.940404
3268.810000, 94.881107
3269.620000, 94.806410
3270.420000, 94.716214
3271.220000, 94.605317
3272.030000, 94.470621
3272.830000, 94.312024
3273.630000, 94.132027
3274.440000, 93.938131
3275.240000, 93.736034
3276.050000, 93.523538
3276.850000, 93.299341
3277.650000, 93.060945
3278.460000, 92.811148
3279.260000, 92.549651
3280.060000, 92.275355
3280.870000, 91.986558
3281.670000, 91.686362
3282.470000, 91.383265
3283.280000, 91.077669
3284.080000, 90.769672
3284.880000, 90.456175
3285.690000, 90.136479
3286.490000, 89.812182
3287.290000, 89.483986
3288.100000, 89.152989
3288.900000, 88.819092
3289.710000, 88.483196
3290.510000, 88.146699
3291.310000, 87.811103
3292.120000, 87.484206
3292.920000, 87.166310
3293.720000, 86.855913
3294.530000, 86.551016
3295.330000, 86.247020
3296.130000, 85.945023
3296.940000, 85.648627
3297.740000, 85.358830
3298.540000, 85.074334
3299.350000, 84.788837
3300.150000, 84.505940
3300.960000, 84.229544
3301.760000, 83.964947
3302.560000, 83.718751
3303.370000, 83.484354
3304.170000, 83.260258
3304.970000, 83.045361
3305.780000, 82.842164
3306.580000, 82.648268
3307.380000, 82.464371
3308.190000, 82.291875
3308.990000, 82.136678
3309.790000, 81.996281
3310.600000, 81.867385
3311.400000, 81.748988
3312.200000, 81.643792
3313.010000, 81.554195
3313.810000, 81.477599
3314.620000, 81.413402
3315.420000, 81.361605
3316.220000, 81.321809
3317.030000, 81.293312
3317.830000, 81.277216
3318.630000, 81.276219
3319.440000, 81.288423
3320.240000, 81.307226
3321.040000, 81.333029
3321.850000, 81.367533
3322.650000, 81.416836
3323.450000, 81.477940
3324.260000, 81.551643
3325.060000, 81.639246
3325.860000, 81.746550
3326.670000, 81.865653
3327.470000, 81.995857
3328.280000, 82.136760
3329.080000, 82.289864
3329.880000, 82.448767
3330.690000, 82.613470
3331.490000, 82.783974
3332.290000, 82.966977
3333.100000, 83.161181
3333.900000, 83.366884
3334.700000, 83.584288
3335.510000, 83.814191
3336.310000, 84.048094
3337.110000, 84.285398
3337.920000, 84.525301
3338.720000, 84.771305
3339.530000, 85.023208
3340.330000, 85.281512
3341.130000, 85.546715
3341.940000, 85.817818
3342.740000, 86.088622
3343.540000, 86.358925
3344.350000, 86.628629
3345.150000, 86.902232
3345.950000, 87.178235
3346.760000, 87.455039
3347.560000, 87.730142
3348.360000, 88.002046
3349.170000, 88.274649
3349.970000, 88.548553
3350.770000, 88.824356
3351.580000, 89.096859
3352.380000, 89.364963
3353.190000, 89.628366
3353.990000, 89.885570
3354.790000, 90.133973
3355.600000, 90.374377
3356.400000, 90.606080
3357.200000, 90.825883
3358.010000, 91.034987
3358.810000, 91.236290
3359.610000, 91.430394
3360.420000, 91.615697
3361.220000, 91.791801
3362.020000, 91.957704
3362.830000, 92.112007
3363.630000, 92.247911
3364.430000, 92.371914
3365.240000, 92.484218
3366.040000, 92.583421
3366.850000, 92.665524
3367.650000, 92.736828
3368.450000, 92.797931
3369.260000, 92.846935
3370.060000, 92.881438
3370.860000, 92.903042
3371.670000, 92.911145
3372.470000, 92.900648
3373.270000, 92.878352
3374.080000, 92.847555
3374.880000, 92.808959
3375.680000, 92.754862
3376.490000, 92.686566
3377.290000, 92.604669
3378.100000, 92.507972
3378.900000, 92.395476
3379.700000, 92.273279
3380.510000, 92.141183
3381.310000, 91.995686
3382.110000, 91.837989
3382.920000, 91.673193
3383.720000, 91.502796
3384.520000, 91.326600
3385.330000, 91.144203
3386.130000, 90.955007
3386.930000, 90.756810
3387.740000, 90.547013
3388.540000, 90.332217
3389.340000, 90.113320
3390.150000, 89.890824
3390.950000, 89.665727
3391.760000, 89.438231
3392.560000, 89.208134
3393.360000, 88.971537
3394.170000, 88.730641
3394.970000, 88.487544
3395.770000, 88.244048
3396.580000, 88.004651
3397.380000, 87.767455
3398.180000, 87.531958
3398.990000, 87.296661
3399.790000, 87.061765
3400.590000, 86.828668
3401.400000, 86.598372
3402.200000, 86.375075
3403.000000, 86.155778
3403.810000, 85.940382
3404.610000, 85.729885
3405.420000, 85.524789
3406.220000, 85.324292
3407.020000, 85.128696
3407.830000, 84.942899
3408.630000, 84.764802
3409.430000, 84.593806
3410.240000, 84.431209
3411.040000, 84.276513
3411.840000, 84.128116
3412.650000, 83.986420
3413.450000, 83.856223
3414.250000, 83.733226
3415.060000, 83.616930
3415.860000, 83.508733
3416.670000, 83.410737
3417.470000, 83.320940
3418.270000, 83.239644
3419.080000, 83.171547
3419.880000, 83.112650
3420.680000, 83.062854
3421.490000, 83.025757
3422.290000, 83.002161
3423.090000, 82.986364
3423.900000, 82.977267
3424.700000, 82.978071
3425.500000, 82.987274
3426.310000, 83.004678
3427.110000, 83.033581
3427.910000, 83.072085
3428.720000, 83.117688
3429.520000, 83.170491
3430.330000, 83.236695
3431.130000, 83.311698
3431.930000, 83.395502
3432.740000, 83.491605
3433.540000, 83.596809
3434.340000, 83.708212
3435.150000, 83.825915
3435.950000, 83.950919
3436.750000, 84.080522
3437.560000, 84.214926
3438.360000, 84.357329
3439.160000, 84.505832
3439.970000, 84.659636
3440.770000, 84.820539
3441.580000, 84.988043
3442.380000, 85.160046
3443.180000, 85.336350
3443.990000, 85.519153
3444.790000, 85.705256
3445.590000, 85.894360
3446.400000, 86.087863
3447.200000, 86.284467
3448.000000, 86.483470
3448.810000, 86.685774
3449.610000, 86.892277
3450.410000, 87.101480
3451.220000, 87.313184
3452.020000, 87.524887
3452.820000, 87.733891
3453.630000, 87.940094
3454.430000, 88.141398
3455.240000, 88.340001
3456.040000, 88.536404
3456.840000, 88.730308
3457.650000, 88.921011
3458.450000, 89.109215
3459.250000, 89.294818
3460.060000, 89.475321
3460.860000, 89.651725
3461.660000, 89.823728
3462.470000, 89.987132
3463.270000, 90.143435
3464.070000, 90.293239
3464.880000, 90.432942
3465.680000, 90.562645
3466.480000, 90.685749
3467.290000, 90.801252
3468.090000, 90.906956
3468.900000, 91.005359
3469.700000, 91.095863
3470.500000, 91.168766
3471.310000, 91.230969
3472.110000, 91.282773
3472.910000, 91.319076
3473.720000, 91.345380
3474.520000, 91.363383
3475.320000, 91.369487
3476.130000, 91.363090
3476.930000, 91.347593
3477.730000, 91.320697
3478.540000, 91.279100
3479.340000, 91.227704
3480.150000, 91.165807
3480.950000, 91.085410
3481.750000, 90.994214
3482.560000, 90.892417
3483.360000, 90.773521
3484.160000, 90.645124
3484.970000, 90.508128
3485.770000, 90.358431
3486.570000, 90.199534
3487.380000, 90.033038
3488.180000, 89.854941
3488.980000, 89.664145
3489.790000, 89.464948
3490.590000, 89.255352
3491.390000, 89.035255
3492.200000, 88.808958
3493.000000, 88.575662
3493.810000, 88.333665
3494.610000, 88.087469
3495.410000, 87.837372
3496.220000, 87.580175
3497.020000, 87.317979
3497.820000, 87.050582
3498.630000, 86.773386
3499.430000, 86.492189
3500.230000, 86.207893
3501.040000, 85.920996
3501.840000, 85.633699
3502.640000, 85.346503
3503.450000, 85.060306
3504.250000, 84.774510
3505.050000, 84.488213
3505.860000, 84.199317
3506.660000, 83.907120
3507.470000, 83.614423
3508.270000, 83.322827
3509.070000, 83.037030
3509.880000, 82.754434
3510.680000, 82.475437
3511.480000, 82.197841
3512.290000, 81.921544
3513.090000, 81.647147
3513.890000, 81.377751
3514.700000, 81.111554
3515.500000, 80.849158
3516.300000, 80.593761
3517.110000, 80.343164
3517.910000, 80.098068
3518.720000, 79.861371
3519.520000, 79.628975
3520.320000, 79.401078
3521.130000, 79.181282
3521.930000, 78.965585
3522.730000, 78.754088
3523.540000, 78.550492
3524.340000, 78.351895
3525.140000, 78.158399
3525.950000, 77.976002
3526.750000, 77.799406
3527.550000, 77.628709
3528.360000, 77.468512
3529.160000, 77.314916
3529.960000, 77.167419
3530.770000, 77.031623
3531.570000, 76.902626
3532.380000, 76.779730
3533.180000, 76.668833
3533.980000, 76.565036
3534.790000, 76.467540
3535.590000, 76.381343
3536.390000, 76.301047
3537.200000, 76.225850
3538.000000, 76.159853
3538.800000, 76.099657
3539.610000, 76.044860
3540.410000, 76.001964
3541.210000, 75.965867
3542.020000, 75.935671
3542.820000, 75.914974
3543.630000, 75.899877
3544.430000, 75.889781
3545.230000, 75.891284
3546.040000, 75.898788
3546.840000, 75.911891
3547.640000, 75.935695
3548.450000, 75.964898
3549.250000, 75.999401
3550.050000, 76.044005
3550.860000, 76.093208
3551.660000, 76.147212
3552.460000, 76.209515
3553.270000, 76.275518
3554.070000, 76.345922
3554.870000, 76.423225
3555.680000, 76.504329
3556.480000, 76.590132
3557.290000, 76.683136
3558.090000, 76.778839
3558.890000, 76.877642
3559.700000, 76.978346
3560.500000, 77.080349
3561.300000, 77.184553
3562.110000, 77.293456
3562.910000, 77.405260
3563.710000, 77.521063
3564.520000, 77.639466
3565.320000, 77.758870
3566.120000, 77.879373
3566.930000, 78.000177
3567.730000, 78.121180
3568.530000, 78.242284
3569.340000, 78.363587
3570.140000, 78.485090
3570.950000, 78.607394
3571.750000, 78.729997
3572.550000, 78.852501
3573.360000, 78.973004
3574.160000, 79.090607
3574.960000, 79.205611
3575.770000, 79.313814
3576.570000, 79.418718
3577.370000, 79.519821
3578.180000, 79.615425
3578.980000, 79.709228
3579.780000, 79.801031
3580.590000, 79.891635
3581.390000, 79.980538
3582.200000, 80.066342
3583.000000, 80.142845
3583.800000, 80.212949
3584.610000, 80.272052
3585.410000, 80.323255
3586.210000, 80.370159
3587.020000, 80.411562
3587.820000, 80.448566
3588.620000, 80.481969
3589.430000, 80.505573
3590.230000, 80.522576
3591.030000, 80.533979
3591.840000, 80.534083
3592.640000, 80.529486
3593.440000, 80.519190
3594.250000, 80.499493
3595.050000, 80.474496
3595.860000, 80.441500
3596.660000, 80.398203
3597.460000, 80.349507
3598.270000, 80.292410
3599.070000, 80.228714
3599.870000, 80.160517
3600.680000, 80.083620
3601.480000, 80.000124
3602.280000, 79.911527
3603.090000, 79.811131
3603.890000, 79.705634
3604.690000, 79.594238
3605.500000, 79.473641
3606.300000, 79.348244
3607.100000, 79.215548
3607.910000, 79.074351
3608.710000, 78.928855
3609.520000, 78.776858
3610.320000, 78.621061
3611.120000, 78.462865
3611.930000, 78.299368
3612.730000, 78.132272
3613.530000, 77.961875
3614.340000, 77.785079
3615.140000, 77.606482
3615.940000, 77.425585
3616.750000, 77.242589
3617.550000, 77.058092
3618.350000, 76.870896
3619.160000, 76.680799
3619.960000, 76.489003
3620.770000, 76.294606
3621.570000, 76.098909
3622.370000, 75.902313
3623.180000, 75.702516
3623.980000, 75.501620
3624.780000, 75.299223
3625.590000, 75.097727
3626.390000, 74.897230
3627.190000, 74.699133
3628.000000, 74.501837
3628.800000, 74.305040
3629.600000, 74.108644
3630.410000, 73.913847
3631.210000, 73.720650
3632.010000, 73.531954
3632.820000, 73.344757
3633.620000, 73.160161
3634.430000, 72.977664
3635.230000, 72.796368
3636.030000, 72.617671
3636.840000, 72.441674
3637.640000, 72.267578
3638.440000, 72.099681
3639.250000, 71.934185
3640.050000, 71.772088
3640.850000, 71.613192
3641.660000, 71.456095
3642.460000, 71.302498
3643.260000, 71.153402
3644.070000, 71.007205
3644.870000, 70.869409
3645.670000, 70.735412
3646.480000, 70.606316
3647.280000, 70.484319
3648.090000, 70.365822
3648.890000, 70.253626
3649.690000, 70.146829
3650.500000, 70.043233
3651.300000, 69.946736
3652.100000, 69.853939
3652.910000, 69.765343
3653.710000, 69.682946
3654.510000, 69.603150
3655.320000, 69.527553
3656.120000, 69.455557
3656.920000, 69.385960
3657.730000, 69.322963
3658.530000, 69.263767
3659.340000, 69.209370
3660.140000, 69.162674
3660.940000, 69.119677
3661.750000, 69.083581
3662.550000, 69.052584
3663.350000, 69.024787
3664.160000, 69.004991
3664.960000, 68.988094
3665.760000, 68.975598
3666.570000, 68.967401
3667.370000, 68.961204
3668.170000, 68.959308
3668.980000, 68.960411
3669.780000, 68.963915
3670.580000, 68.972318
3671.390000, 68.982722
3672.190000, 68.997025
3673.000000, 69.016428
3673.800000, 69.038532
3674.600000, 69.067135
3675.410000, 69.097639
3676.210000, 69.130242
3677.010000, 69.164546
3677.820000, 69.200049
3678.620000, 69.238552
3679.420000, 69.280356
3680.230000, 69.324359
3681.030000, 69.372563
3681.830000, 69.421366
3682.640000, 69.471270
3683.440000, 69.521873
3684.250000, 69.572976
3685.050000, 69.625380
3685.850000, 69.678283
3686.660000, 69.731587
3687.460000, 69.784990
3688.260000, 69.838293
3689.070000, 69.891697
3689.870000, 69.945000
3690.670000, 69.998304
3691.480000, 70.051107
3692.280000, 70.103611
3693.080000, 70.155614
3693.890000, 70.206317
3694.690000, 70.256221
3695.490000, 70.302524
3696.300000, 70.346528
3697.100000, 70.386831
3697.910000, 70.422335
3698.710000, 70.455638
3699.510000, 70.484841
3700.320000, 70.513045
3701.120000, 70.540148
3701.920000, 70.565152
3702.730000, 70.588955
3703.530000, 70.608858
3704.330000, 70.625162
3705.140000, 70.638365
3705.940000, 70.644869
3706.740000, 70.649072
3707.550000, 70.648876
3708.350000, 70.646079
3709.150000, 70.641482
3709.960000, 70.630286
3710.760000, 70.615889
3711.570000, 70.594093
3712.370000, 70.565896
3713.170000, 70.533900
3713.980000, 70.492703
3714.780000, 70.448506
3715.580000, 70.398310
3716.390000, 70.343313
3717.190000, 70.285917
3717.990000, 70.222120
3718.800000, 70.156024
3719.600000, 70.085727
3720.400000, 70.010930
3721.210000, 69.934134
3722.010000, 69.851037
3722.820000, 69.764841
3723.620000, 69.673344
3724.420000, 69.574547
3725.230000, 69.472451
3726.030000, 69.361754
3726.830000, 69.249558
3727.640000, 69.134761
3728.440000, 69.018865
3729.240000, 68.902468
3730.050000, 68.781271
3730.850000, 68.656975
3731.650000, 68.527278
3732.460000, 68.392582
3733.260000, 68.255685
3734.060000, 68.114589
3734.870000, 67.972092
3735.670000, 67.826995
3736.480000, 67.679199
3737.280000, 67.530302
3738.080000, 67.379906
3738.890000, 67.229709
3739.690000, 67.079913
3740.490000, 66.930316
3741.300000, 66.780919
3742.100000, 66.630123
3742.900000, 66.478626
3743.710000, 66.325330
3744.510000, 66.171233
3745.310000, 66.016636
3746.120000, 65.862840
3746.920000, 65.709443
3747.720000, 65.557447
3748.530000, 65.406550
3749.330000, 65.256454
3750.140000, 65.108957
3750.940000, 64.962360
3751.740000, 64.818564
3752.550000, 64.676067
3753.350000, 64.535071
3754.150000, 64.395874
3754.960000, 64.257478
3755.760000, 64.121381
3756.560000, 63.987384
3757.370000, 63.855988
3758.170000, 63.728991
3758.970000, 63.603695
3759.780000, 63.482898
3760.580000, 63.363301
3761.390000, 63.246005
3762.190000, 63.133408
3762.990000, 63.023312
3763.800000, 62.921815
3764.600000, 62.822119
3765.400000, 62.726522
3766.210000, 62.632425
3767.010000, 62.539629
3767.810000, 62.452432
3768.620000, 62.367536
3769.420000, 62.291039
3770.220000, 62.217643
3771.030000, 62.148346
3771.830000, 62.083349
3772.630000, 62.020153
3773.440000, 61.964156
3774.240000, 61.910860
3775.050000, 61.863363
3775.850000, 61.820167
3776.650000, 61.779870
3777.460000, 61.744973
3778.260000, 61.712077
3779.060000, 61.684880
3779.870000, 61.661684
3780.670000, 61.643187
3781.470000, 61.631690
3782.280000, 61.622694
3783.080000, 61.620497
3783.880000, 61.619701
3784.690000, 61.622004
3785.490000, 61.627608
3786.300000, 61.635411
3787.100000, 61.651414
3787.900000, 61.670218
3788.710000, 61.698021
3789.510000, 61.729025
3790.310000, 61.764328
3791.120000, 61.802932
3791.920000, 61.842735
3792.720000, 61.887038
3793.530000, 61.932942
3794.330000, 61.983145
3795.130000, 62.036149
3795.940000, 62.091752
3796.740000, 62.150856
3797.540000, 62.211159
3798.350000, 62.276062
3799.150000, 62.343066
3799.960000, 62.414169
3800.760000, 62.488673
3801.560000, 62.565276
3802.370000, 62.645879
3803.170000, 62.727583
3803.970000, 62.812886
3804.780000, 62.899490
3805.580000, 62.987693
3806.380000, 63.076797
3807.190000, 63.166100
3807.990000, 63.257900
3808.790000, 63.350100
3809.600000, 63.443900
3810.400000, 63.539400
3811.200000, 63.636700
3812.010000, 63.736300
3812.810000, 63.836900
3813.620000, 63.938200
3814.420000, 64.039300
3815.220000, 64.138900
3816.030000, 64.237400
3816.830000, 64.334400
3817.630000, 64.429100
3818.440000, 64.523000
3819.240000, 64.614200
3820.040000, 64.704900
3820.850000, 64.794700
3821.650000, 64.883700
3822.450000, 64.972000
3823.260000, 65.058000
3824.060000, 65.143000
3824.870000, 65.224900
3825.670000, 65.306200
3826.470000, 65.385700
3827.280000, 65.463200
3828.080000, 65.538500
3828.880000, 65.609000
3829.690000, 65.677400
3830.490000, 65.738700
3831.290000, 65.798300
3832.100000, 65.852200
3832.900000, 65.903900
3833.700000, 65.952200
3834.510000, 65.997200
3835.310000, 66.040600
3836.110000, 66.078400
3836.920000, 66.114700
3837.720000, 66.143900
3838.530000, 66.170500
3839.330000, 66.192200
3840.130000, 66.209500
3840.940000, 66.223700
3841.740000, 66.230000
3842.540000, 66.234100
3843.350000, 66.228100
3844.150000, 66.220000
3844.950000, 66.206200
3845.760000, 66.190200
3846.560000, 66.172100
3847.360000, 66.150200
3848.170000, 66.126700
3848.970000, 66.094100
3849.770000, 66.059000
3850.580000, 66.014000
3851.380000, 65.965100
3852.190000, 65.910100
3852.990000, 65.851100
3853.790000, 65.789400
3854.600000, 65.722700
3855.400000, 65.654600
3856.200000, 65.579500
3857.010000, 65.502600
3857.810000, 65.420400
3858.610000, 65.335000
3859.420000, 65.246100
3860.220000, 65.152800
3861.020000, 65.057500
3861.830000, 64.957400
3862.630000, 64.856400
3863.440000, 64.751800
3864.240000, 64.645600
3865.040000, 64.536200
3865.850000, 64.423500
3866.650000, 64.307800
3867.450000, 64.187800
3868.260000, 64.066100
3869.060000, 63.940800
3869.860000, 63.815100
3870.670000, 63.687900
3871.470000, 63.560400
3872.270000, 63.432100
3873.080000, 63.303200
3873.880000, 63.173800
3874.680000, 63.043100
3875.490000, 62.912100
3876.290000, 62.778700
3877.100000, 62.644800
3877.900000, 62.508500
3878.700000, 62.372100
3879.510000, 62.235300
3880.310000, 62.099800
3881.110000, 61.965600
3881.920000, 61.833800
3882.720000, 61.702900
3883.520000, 61.574000
3884.330000, 61.445500
3885.130000, 61.317700
3885.930000, 61.190200
3886.740000, 61.063400
3887.540000, 60.937700
3888.350000, 60.813100
3889.150000, 60.691000
3889.950000, 60.570100
3890.760000, 60.452300
3891.560000, 60.335100
3892.360000, 60.220900
3893.170000, 60.107500
3893.970000, 59.997200
3894.770000, 59.888700
3895.580000, 59.783000
3896.380000, 59.680700
3897.180000, 59.580700
3897.990000, 59.485900
3898.790000, 59.392800
3899.590000, 59.306200
3900.400000, 59.220700
3901.200000, 59.139900
3902.010000, 59.060400
3902.810000, 58.984300
3903.610000, 58.911000
3904.420000, 58.841000
3905.220000, 58.775000
3906.020000, 58.711300
3906.830000, 58.651700
3907.630000, 58.593200
3908.430000, 58.539900
3909.240000, 58.487700
3910.040000, 58.441600
3910.840000, 58.397500
3911.650000, 58.358100
3912.450000, 58.321100
3913.250000, 58.286900
3914.060000, 58.256300
3914.860000, 58.228000
3915.670000, 58.206000
3916.470000, 58.185700
3917.270000, 58.173400
3918.080000, 58.162100
3918.880000, 58.156700
3919.680000, 58.152900
3920.490000, 58.153700
3921.290000, 58.157800
3922.090000, 58.166500
3922.900000, 58.179200
3923.700000, 58.194900
3924.500000, 58.213800
3925.310000, 58.234000
3926.110000, 58.258300
3926.920000, 58.283300
3927.720000, 58.314900
3928.520000, 58.347600
3929.330000, 58.386100
3930.130000, 58.426400
3930.930000, 58.470700
3931.740000, 58.517400
3932.540000, 58.566900
3933.340000, 58.619500
3934.150000, 58.674100
3934.950000, 58.732100
3935.750000, 58.791100
3936.560000, 58.854400
3937.360000, 58.918300
3938.160000, 58.987200
3938.970000, 59.056900
3939.770000, 59.130800
3940.580000, 59.206300
3941.380000, 59.285100
3942.180000, 59.365500
3942.990000, 59.447900
3943.790000, 59.531500
3944.590000, 59.615900
3945.400000, 59.701700
3946.200000, 59.788000
3947.000000, 59.876300
3947.810000, 59.965000
3948.610000, 60.056600
3949.410000, 60.148400
3950.220000, 60.242500
3951.020000, 60.336700
3951.820000, 60.431600
3952.630000, 60.526200
3953.430000, 60.620100
3954.240000, 60.713400
3955.040000, 60.806100
3955.840000, 60.898600
3956.650000, 60.991000
3957.450000, 61.082700
3958.250000, 61.174100
3959.060000, 61.263500
3959.860000, 61.352400
3960.660000, 61.439700
3961.470000, 61.526800
3962.270000, 61.613400
3963.070000, 61.699800
3963.880000, 61.785200
3964.680000, 61.869700
3965.490000, 61.952100
3966.290000, 62.032200
3967.090000, 62.109400
3967.900000, 62.183200
3968.700000, 62.254100
3969.500000, 62.321900
3970.310000, 62.388000
3971.110000, 62.451400
3971.910000, 62.513900
3972.720000, 62.573100
3973.520000, 62.631700
3974.320000, 62.684800
3975.130000, 62.737200
3975.930000, 62.782700
3976.730000, 62.826500
3977.540000, 62.863500
3978.340000, 62.898000
3979.150000, 62.926600
3979.950000, 62.952300
3980.750000, 62.973400
3981.560000, 62.990800
3982.360000, 63.004500
3983.160000, 63.013800
3983.970000, 63.020000
3984.770000, 63.021600
3985.570000, 63.020900
3986.380000, 63.014500
3987.180000, 63.006400
3987.980000, 62.990000
3988.790000, 62.972400
3989.590000, 62.944500
3990.390000, 62.915700
3991.200000, 62.878200
3992.000000, 62.839900
3992.810000, 62.795700
3993.610000, 62.749900
3994.410000, 62.698600
3995.220000, 62.644700
3996.020000, 62.585100
3996.820000, 62.522100
3997.630000, 62.453900
3998.430000, 62.381700
3999.230000, 62.304900
4000.040000, 62.223400
4000.840000, 62.138300
4001.640000, 62.048800
4002.450000, 61.956700
4003.250000, 61.860500
4004.060000, 61.762600
4004.860000, 61.659600
4005.660000, 61.555300
4006.470000, 61.444400
4007.270000, 61.332600
4008.070000, 61.214400
4008.880000, 61.095800
4009.680000, 60.973200
4010.480000, 60.850400
4011.290000, 60.724200
4012.090000, 60.597300
4012.890000, 60.465600
4013.700000, 60.332500
4014.500000, 60.194500
4015.300000, 60.055000
4016.110000, 59.912100
4016.910000, 59.768400
4017.720000, 59.623000
4018.520000, 59.477100
4019.320000, 59.330500
4020.130000, 59.182700
4020.930000, 59.033700
4021.730000, 58.882700
4022.540000, 58.730100
4023.340000, 58.575800
4024.140000, 58.420400
4024.950000, 58.265300
4025.750000, 58.110200
4026.550000, 57.956100
4027.360000, 57.802400
4028.160000, 57.648100
4028.970000, 57.493600
4029.770000, 57.337800
4030.570000, 57.181600
4031.380000, 57.025700
4032.180000, 56.869900
4032.980000, 56.716000
4033.790000, 56.562300
4034.590000, 56.410000
4035.390000, 56.257900
4036.200000, 56.106700
4037.000000, 55.955700
4037.800000, 55.806700
4038.610000, 55.658100
4039.410000, 55.512800
4040.210000, 55.367900
4041.020000, 55.225800
4041.820000, 55.084000
4042.630000, 54.943400
4043.430000, 54.802900
4044.230000, 54.663000
4045.040000, 54.523700
4045.840000, 54.385800
4046.640000, 54.249500
4047.450000, 54.116600
4048.250000, 53.985800
4049.050000, 53.859400
4049.860000, 53.735000
4050.660000, 53.614000
4051.460000, 53.494200
4052.270000, 53.376100
4053.070000, 53.258800
4053.870000, 53.142300
4054.680000, 53.027200
4055.480000, 52.913600
4056.290000, 52.802500
4057.090000, 52.694100
4057.890000, 52.588800
4058.700000, 52.486500
4059.500000, 52.386800
4060.300000, 52.289400
4061.110000, 52.193900
4061.910000, 52.099900
4062.710000, 52.008100
4063.520000, 51.917900
4064.320000, 51.830400
4065.120000, 51.744700
4065.930000, 51.661700
4066.730000, 51.580600
4067.540000, 51.502200
4068.340000, 51.425500
4069.140000, 51.351400
4069.950000, 51.278700
4070.750000, 51.208400
4071.550000, 51.139200
4072.360000, 51.072600
4073.160000, 51.007200
4073.960000, 50.944600
4074.770000, 50.883500
4075.570000, 50.825100
4076.370000, 50.768000
4077.180000, 50.713300
4077.980000, 50.659600
4078.780000, 50.608000
4079.590000, 50.557200
4080.390000, 50.507800
4081.200000, 50.458900
4082.000000, 50.411200
4082.800000, 50.364000
4083.610000, 50.319200
4084.410000, 50.275500
4085.210000, 50.234700
4086.020000, 50.195300
4086.820000, 50.157700
4087.620000, 50.121100
4088.430000, 50.085300
4089.230000, 50.050000
4090.030000, 50.015900
4090.840000, 49.982300
4091.640000, 49.950400
4092.440000, 49.919200
4093.250000, 49.888500
4094.050000, 49.858200
4094.860000, 49.827400
4095.660000, 49.796300
4096.460000, 49.765500
4097.270000, 49.734800
4098.070000, 49.705500
4098.870000, 49.676900
4099.680000, 49.649500
4100.480000, 49.622800
4101.280000, 49.595900
4102.090000, 49.568900
4102.890000, 49.540600
4103.690000, 49.511300
4104.500000, 49.480400
4105.300000, 49.448300
4106.110000, 49.415700
4106.910000, 49.382600
4107.710000, 49.349300
4108.520000, 49.315900
4109.320000, 49.281800
4110.120000, 49.247200
4110.930000, 49.211600
4111.730000, 49.175000
4112.530000, 49.137500
4113.340000, 49.098900
4114.140000, 49.058900
4114.940000, 49.017100
4115.750000, 48.973800
4116.550000, 48.927900
4117.350000, 48.880800
4118.160000, 48.831300
4118.960000, 48.781100
4119.770000, 48.729300
4120.570000, 48.676800
4121.370000, 48.622600
4122.180000, 48.567600
4122.980000, 48.510000
4123.780000, 48.451600
4124.590000, 48.389600
4125.390000, 48.327100
4126.190000, 48.260700
4127.000000, 48.194000
4127.800000, 48.123600
4128.600000, 48.053000
4129.410000, 47.978900
4130.210000, 47.904700
4131.020000, 47.826900
4131.820000, 47.749100
4132.620000, 47.667500
4133.430000, 47.585800
4134.230000, 47.499900
4135.030000, 47.413600
4135.840000, 47.322900
4136.640000, 47.231600
4137.440000, 47.136800
4138.250000, 47.041200
4139.050000, 46.943200
4139.850000, 46.844500
4140.660000, 46.744000
4141.460000, 46.642700
4142.260000, 46.539100
4143.070000, 46.434100
4143.870000, 46.326800
4144.680000, 46.217800
4145.480000, 46.107400
4146.280000, 45.995800
4147.090000, 45.883200
4147.890000, 45.769500
4148.690000, 45.654300
4149.500000, 45.536900
4150.300000, 45.418100
4151.100000, 45.296300
4151.910000, 45.173800
4152.710000, 45.048800
4153.510000, 44.923500
4154.320000, 44.796100
4155.120000, 44.668500
4155.920000, 44.538700
4156.730000, 44.408900
4157.530000, 44.278200
4158.340000, 44.147400
4159.140000, 44.017500
4159.940000, 43.887600
4160.750000, 43.757700
4161.550000, 43.627900
4162.350000, 43.496400
4163.160000, 43.364600
4163.960000, 43.231400
4164.760000, 43.097800
4165.570000, 42.964200
4166.370000, 42.830600
4167.170000, 42.697100
4167.980000, 42.563800
4168.780000, 42.430000
4169.590000, 42.296000
4170.390000, 42.161700
4171.190000, 42.027100
4172.000000, 41.892700
4172.800000, 41.758700
4173.600000, 41.625200
4174.410000, 41.493100
4175.210000, 41.361400
4176.010000, 41.231900
4176.820000, 41.102500
4177.620000, 40.975600
4178.420000, 40.848800
4179.230000, 40.724500
4180.030000, 40.600400
4180.830000, 40.479000
4181.640000, 40.358100
4182.440000, 40.239700
4183.250000, 40.122200
4184.050000, 40.007600
4184.850000, 39.894500
4185.660000, 39.785600
4186.460000, 39.680000
4187.260000, 39.578800
4188.070000, 39.482900
4188.870000, 39.391100
4189.670000, 39.306700
4190.480000, 39.225900
4191.280000, 39.156300
4192.080000, 39.089400
4192.890000, 39.038700
4193.690000, 38.988500
4194.490000, 38.957100
4195.300000, 38.925700
4196.100000, 38.908900
4196.910000, 38.893300
4197.710000, 38.887000
4198.510000, 38.882900
4199.320000, 38.885400
4200.120000, 38.890900
4200.920000, 38.901500
4201.730000, 38.915800
4202.530000, 38.933600
4203.330000, 38.955500
4204.140000, 38.979800
4204.940000, 39.008800
4205.740000, 39.040100
4206.550000, 39.079500
4207.350000, 39.120300
4208.160000, 39.173400
4208.960000, 39.226500
4209.760000, 39.293600
4210.570000, 39.361100
4211.370000, 39.440400
4212.170000, 39.521700
4212.980000, 39.612000
4213.780000, 39.705700
4214.580000, 39.805400
4215.390000, 39.909400
4216.190000, 40.017800
4216.990000, 40.131300
4217.800000, 40.247600
4218.600000, 40.369400
4219.400000, 40.491300
4220.210000, 40.613300
4221.010000, 40.734800
4221.820000, 40.846800
4222.620000, 40.958700
4223.420000, 41.061800
4224.230000, 41.164000
4225.030000, 41.263000
4225.830000, 41.361100
4226.640000, 41.451900
4227.440000, 41.538200
4228.240000, 41.611800
4229.050000, 41.671700
4229.850000, 41.721100
4230.650000, 41.750100
4231.460000, 41.774400
4232.260000, 41.779200
4233.060000, 41.783600
4233.870000, 41.777100
4234.670000, 41.770700
4235.480000, 41.747900
4236.280000, 41.723000
4237.080000, 41.664900
4237.890000, 41.594900
4238.690000, 41.501100
4239.490000, 41.390300
4240.300000, 41.269600
4241.100000, 41.135800
4241.900000, 40.990200
4242.710000, 40.812200
4243.510000, 40.627900
4244.310000, 40.389400
4245.120000, 40.151000
4245.920000, 39.893100
4246.730000, 39.634100
4247.530000, 39.389700
4248.330000, 39.149300
4249.140000, 38.908900
4249.940000, 38.668400
4250.740000, 38.415600
4251.550000, 38.147500
4252.350000, 37.873900
4253.150000, 37.586100
4253.960000, 37.301400
4254.760000, 37.041300
4255.560000, 36.781300
4256.370000, 36.611500
4257.170000, 36.447700
4257.970000, 36.388200
4258.780000, 36.361000
4259.580000, 36.405800
4260.390000, 36.501000
4261.190000, 36.617400
4261.990000, 36.764200
4262.800000, 36.903500
4263.600000, 37.017900
4264.400000, 37.128800
4265.210000, 37.173300
4266.010000, 37.217800
4266.810000, 37.205500
4267.620000, 37.184400
4268.420000, 37.127000
4269.220000, 37.052800
4270.030000, 36.955200
4270.830000, 36.833800
4271.640000, 36.701400
4272.440000, 36.544200
4273.240000, 36.386400
4274.050000, 36.223900
4274.850000, 36.061400
4275.650000, 35.927900
4276.460000, 35.796800
4277.260000, 35.687200
4278.060000, 35.585500
4278.870000, 35.477200
4279.670000, 35.363100
4280.470000, 35.240100
4281.280000, 35.099500
4282.080000, 34.959600
4282.880000, 34.823700
4283.690000, 34.687900
4284.490000, 34.571500
4285.300000, 34.456500
4286.100000, 34.345800
4286.900000, 34.236700
4287.710000, 34.119700
4288.510000, 33.995900
4289.310000, 33.864400
4290.120000, 33.717000
4290.920000, 33.567400
4291.720000, 33.401500
4292.530000, 33.235600
4293.330000, 33.060700
4294.130000, 32.884800
4294.940000, 32.703800
4295.740000, 32.520600
4296.540000, 32.334100
4297.350000, 32.144100
4298.150000, 31.953800
4298.960000, 31.762300
4299.760000, 31.570900
4300.560000, 31.379800
4301.370000, 31.188700
4302.170000, 30.991800
4302.970000, 30.793600
4303.780000, 30.589900
4304.580000, 30.382600
4305.380000, 30.173500
4306.190000, 29.961600
4306.990000, 29.748500
4307.790000, 29.529100
4308.600000, 29.309700
4309.400000, 29.079900
4310.210000, 28.849500
4311.010000, 28.616100
4311.810000, 28.381600
4312.620000, 28.149700
4313.420000, 27.920800
4314.220000, 27.693900
4315.030000, 27.473500
4315.830000, 27.253100
4316.630000, 27.040200
4317.440000, 26.827400
4318.240000, 26.623700
4319.040000, 26.422700
4319.850000, 26.228800
4320.650000, 26.041100
4321.450000, 25.855400
4322.260000, 25.674500
4323.060000, 25.493600
4323.870000, 25.313900
4324.670000, 25.134200
4325.470000, 24.952300
4326.280000, 24.769900
4327.080000, 24.584800
4327.880000, 24.397400
4328.690000, 24.209200
4329.490000, 24.019500
4330.290000, 23.829900
4331.100000, 23.641100
4331.900000, 23.452400
4332.700000, 23.264300
4333.510000, 23.076300
4334.310000, 22.887900
4335.110000, 22.699000
4335.920000, 22.510800
4336.720000, 22.323900
4337.530000, 22.137500
4338.330000, 21.959800
4339.130000, 21.782200
4339.940000, 21.614400
4340.740000, 21.449300
4341.540000, 21.289200
4342.350000, 21.133500
4343.150000, 20.979400
4343.950000, 20.829600
4344.760000, 20.679800
4345.560000, 20.532700
4346.360000, 20.385600
4347.170000, 20.238800
4347.970000, 20.092000
4348.780000, 19.946200
4349.580000, 19.801400
4350.380000, 19.657700
4351.190000, 19.518000
4351.990000, 19.378300
4352.790000, 19.243800
4353.600000, 19.109800
4354.400000, 18.978800
4355.200000, 18.849400
4356.010000, 18.721800
4356.810000, 18.596900
4357.610000, 18.472500
4358.420000, 18.351900
4359.220000, 18.231300
4360.020000, 18.113200
4360.830000, 17.995600
4361.630000, 17.879800
4362.440000, 17.765600
4363.240000, 17.652700
4364.040000, 17.543200
4364.850000, 17.433700
4365.650000, 17.328500
4366.450000, 17.223400
4367.260000, 17.121100
4368.060000, 17.020000
4368.860000, 16.920800
4369.670000, 16.824500
4370.470000, 16.728700
4371.270000, 16.637400
4372.080000, 16.546100
4372.880000, 16.458500
4373.690000, 16.371900
4374.490000, 16.287700
4375.290000, 16.205800
4376.100000, 16.125200
4376.900000, 16.049000
4377.700000, 15.972700
4378.510000, 15.902300
4379.310000, 15.832500
4380.110000, 15.766900
4380.920000, 15.704000
4381.720000, 15.643000
4382.520000, 15.586200
4383.330000, 15.529500
4384.130000, 15.477300
4384.930000, 15.425000
4385.740000, 15.375300
4386.540000, 15.326600
4387.350000, 15.279300
4388.150000, 15.234100
4388.950000, 15.189100
4389.760000, 15.146800
4390.560000, 15.104500
4391.360000, 15.063800
4392.170000, 15.023600
4392.970000, 14.984400
4393.770000, 14.946500
4394.580000, 14.909100
4395.380000, 14.874600
4396.180000, 14.840100
4396.990000, 14.808700
4397.790000, 14.778000
4398.590000, 14.749200
4399.400000, 14.722200
4400.200000, 14.696000
4401.010000, 14.673000
4401.810000, 14.650100
4402.610000, 14.630600
4403.420000, 14.611600
4404.220000, 14.594400
4405.020000, 14.578700
4405.830000, 14.563600
4406.630000, 14.550600
4407.430000, 14.537600
4408.240000, 14.526900
4409.040000, 14.516500
4409.840000, 14.508100
4410.650000, 14.501300
4411.450000, 14.495300
4412.260000, 14.492300
4413.060000, 14.489200
4413.860000, 14.488600
4414.670000, 14.488200
4415.470000, 14.488900
4416.270000, 14.490300
4417.080000, 14.492100
4417.880000, 14.495000
4418.680000, 14.498000
4419.490000, 14.503100
4420.290000, 14.508600
4421.090000, 14.516300
4421.900000, 14.526100
4422.700000, 14.536500
4423.500000, 14.550100
4424.310000, 14.563700
4425.110000, 14.578300
4425.920000, 14.593200
4426.720000, 14.608500
4427.520000, 14.624100
4428.330000, 14.640000
4429.130000, 14.658400
4429.930000, 14.676800
4430.740000, 14.698100
4431.540000, 14.720300
4432.340000, 14.743600
4433.150000, 14.768400
4433.950000, 14.793300
4434.750000, 14.819300
4435.560000, 14.845300
4436.360000, 14.872000
4437.160000, 14.899000
4437.970000, 14.926600
4438.770000, 14.955500
4439.580000, 14.984400
4440.380000, 15.015700
4441.180000, 15.047200
4441.990000, 15.080200
4442.790000, 15.114300
4443.590000, 15.149100
4444.400000, 15.186300
4445.200000, 15.223500
4446.000000, 15.262900
4446.810000, 15.302600
4447.610000, 15.343000
4448.410000, 15.383900
4449.220000, 15.424700
4450.020000, 15.465600
4450.830000, 15.506500
4451.630000, 15.547700
4452.430000, 15.589000
4453.240000, 15.630800
4454.040000, 15.673500
4454.840000, 15.716300
4455.650000, 15.760100
4456.450000, 15.803900
4457.250000, 15.847900
4458.060000, 15.892100
4458.860000, 15.936600
4459.660000, 15.982300
4460.470000, 16.027900
4461.270000, 16.075300
4462.070000, 16.123100
4462.880000, 16.171300
4463.680000, 16.220000
4464.490000, 16.268700
4465.290000, 16.317800
4466.090000, 16.366800
4466.900000, 16.416400
4467.700000, 16.466300
4468.500000, 16.516200
4469.310000, 16.566400
4470.110000, 16.616600
4470.910000, 16.666500
4471.720000, 16.716300
4472.520000, 16.765900
4473.320000, 16.815300
4474.130000, 16.864700
4474.930000, 16.913700
4475.730000, 16.962600
4476.540000, 17.011300
4477.340000, 17.059700
4478.150000, 17.108400
4478.950000, 17.157400
4479.750000, 17.206500
4480.560000, 17.256300
4481.360000, 17.306300
4482.160000, 17.356100
4482.970000, 17.405600
4483.770000, 17.455100
4484.570000, 17.503300
4485.380000, 17.551500
4486.180000, 17.599300
4486.980000, 17.646700
4487.790000, 17.694100
4488.590000, 17.741500
4489.400000, 17.788900
4490.200000, 17.836100
4491.000000, 17.883200
4491.810000, 17.929900
4492.610000, 17.976000
4493.410000, 18.022100
4494.220000, 18.067200
4495.020000, 18.112100
4495.820000, 18.156700
4496.630000, 18.201000
4497.430000, 18.245200
4498.230000, 18.288200
4499.040000, 18.331300
4499.840000, 18.372900
4500.640000, 18.413600
4501.450000, 18.454000
4502.250000, 18.493000
4503.060000, 18.531900
4503.860000, 18.571000
4504.660000, 18.610100
4505.470000, 18.649400
4506.270000, 18.688900
4507.070000, 18.728400
4507.880000, 18.766700
4508.680000, 18.804800
4509.480000, 18.841800
4510.290000, 18.877500
4511.090000, 18.913100
4511.890000, 18.946800
4512.700000, 18.980500
4513.500000, 19.013200
4514.310000, 19.045400
4515.110000, 19.077300
4515.910000, 19.108200
4516.720000, 19.139100
4517.520000, 19.170000
4518.320000, 19.200800
4519.130000, 19.231700
4519.930000, 19.262600
4520.730000, 19.293400
4521.540000, 19.322700
4522.340000, 19.351600
4523.140000, 19.379600
4523.950000, 19.405900
4524.750000, 19.432200
4525.550000, 19.457200
4526.360000, 19.482100
4527.160000, 19.506500
4527.970000, 19.530300
4528.770000, 19.554200
4529.570000, 19.577200
4530.380000, 19.600200
4531.180000, 19.622900
4531.980000, 19.645500
4532.790000, 19.668100
4533.590000, 19.690400
4534.390000, 19.712800
4535.200000, 19.734700
4536.000000, 19.756400
4536.800000, 19.778000
4537.610000, 19.798000
4538.410000, 19.818100
4539.210000, 19.836500
4540.020000, 19.853900
4540.820000, 19.870900
4541.630000, 19.886000
4542.430000, 19.901100
4543.230000, 19.915300
4544.040000, 19.929000
4544.840000, 19.942600
4545.640000, 19.955800
4546.450000, 19.969000
4547.250000, 19.982000
4548.050000, 19.995100
4548.860000, 20.008000
4549.660000, 20.020400
4550.460000, 20.032700
4551.270000, 20.043700
4552.070000, 20.054300
4552.880000, 20.064400
4553.680000, 20.073500
4554.480000, 20.082600
4555.290000, 20.091300
4556.090000, 20.099800
4556.890000, 20.108200
4557.700000, 20.116000
4558.500000, 20.123900
4559.300000, 20.131000
4560.110000, 20.137800
4560.910000, 20.144400
4561.710000, 20.150500
4562.520000, 20.156500
4563.320000, 20.162200
4564.120000, 20.167800
4564.930000, 20.173200
4565.730000, 20.178000
4566.540000, 20.182800
4567.340000, 20.185700
4568.140000, 20.188200
4568.950000, 20.189800
4569.750000, 20.189300
4570.550000, 20.188900
4571.360000, 20.187400
4572.160000, 20.185700
4572.960000, 20.184000
4573.770000, 20.182600
4574.570000, 20.181300
4575.370000, 20.179600
4576.180000, 20.177800
4576.980000, 20.175500
4577.780000, 20.171900
4578.590000, 20.168300
4579.390000, 20.163300
4580.200000, 20.157900
4581.000000, 20.152300
4581.800000, 20.146100
4582.610000, 20.140000
4583.410000, 20.133700
4584.210000, 20.127400
4585.020000, 20.120900
4585.820000, 20.113600
4586.620000, 20.106300
4587.430000, 20.097700
4588.230000, 20.088500
4589.030000, 20.079100
4589.840000, 20.068500
4590.640000, 20.057800
4591.450000, 20.046600
4592.250000, 20.035000
4593.050000, 20.023300
4593.860000, 20.010300
4594.660000, 19.997300
4595.460000, 19.982900
4596.270000, 19.967500
4597.070000, 19.951900
4597.870000, 19.933600
4598.680000, 19.915300
4599.480000, 19.896000
4600.280000, 19.875500
4601.090000, 19.855100
4601.890000, 19.833200
4602.690000, 19.811300
4603.500000, 19.788600
4604.300000, 19.765100
4605.110000, 19.741500
4605.910000, 19.716700
4606.710000, 19.691700
4607.520000, 19.666200
4608.320000, 19.639800
4609.120000, 19.613400
4609.930000, 19.585700
4610.730000, 19.557600
4611.530000, 19.529100
4612.340000, 19.499300
4613.140000, 19.469500
4613.940000, 19.438400
4614.750000, 19.406700
4615.550000, 19.374700
4616.360000, 19.340500
4617.160000, 19.306200
4617.960000, 19.270600
4618.770000, 19.233800
4619.570000, 19.197000
4620.370000, 19.158100
4621.180000, 19.119200
4621.980000, 19.079500
4622.780000, 19.038600
4623.590000, 18.997800
4624.390000, 18.955300
4625.190000, 18.912600
4626.000000, 18.869400
4626.800000, 18.824900
4627.600000, 18.780400
4628.410000, 18.733900
4629.210000, 18.686600
4630.020000, 18.638800
4630.820000, 18.587700
4631.620000, 18.536600
4632.430000, 18.483400
4633.230000, 18.428900
4634.030000, 18.374400
4634.840000, 18.317700
4635.640000, 18.261100
4636.440000, 18.203600
4637.250000, 18.145100
4638.050000, 18.086700
4638.850000, 18.026500
4639.660000, 17.966000
4640.460000, 17.904900
4641.260000, 17.841900
4642.070000, 17.778900
4642.870000, 17.713700
4643.680000, 17.647600
4644.480000, 17.581200
4645.280000, 17.512200
4646.090000, 17.443200
4646.890000, 17.373000
4647.690000, 17.301500
4648.500000, 17.230000
4649.300000, 17.156200
4650.100000, 17.082200
4650.910000, 17.007400
4651.710000, 16.931100
4652.510000, 16.854800
4653.320000, 16.777400
4654.120000, 16.699600
4654.930000, 16.621500
4655.730000, 16.542200
4656.530000, 16.462800
4657.340000, 16.382200
4658.140000, 16.300400
4658.940000, 16.218600
4659.750000, 16.134400
4660.550000, 16.050000
4661.350000, 15.964800
4662.160000, 15.878100
4662.960000, 15.791300
4663.760000, 15.702400
4664.570000, 15.612600
4665.370000, 15.522500
4666.170000, 15.429100
4666.980000, 15.335800
4667.780000, 15.241700
4668.590000, 15.146600
4669.390000, 15.051600
4670.190000, 14.956600
4671.000000, 14.861600
4671.800000, 14.766300
4672.600000, 14.670400
4673.410000, 14.574500
4674.210000, 14.477200
4675.010000, 14.379100
4675.820000, 14.280900
4676.620000, 14.180300
4677.420000, 14.079800
4678.230000, 13.978200
4679.030000, 13.875000
4679.830000, 13.771900
4680.640000, 13.667200
4681.440000, 13.562100
4682.250000, 13.456900
4683.050000, 13.351300
4683.850000, 13.245800
4684.660000, 13.140100
4685.460000, 13.034200
4686.260000, 12.928300
4687.070000, 12.821200
4687.870000, 12.713800
4688.670000, 12.606100
4689.480000, 12.497100
4690.280000, 12.388000
4691.080000, 12.278100
4691.890000, 12.167700
4692.690000, 12.057300
4693.500000, 11.945900
4694.300000, 11.834500
4695.100000, 11.722800
4695.910000, 11.610500
4696.710000, 11.498200
4697.510000, 11.385800
4698.320000, 11.273300
4699.120000, 11.160900
4699.920000, 11.048900
4700.730000, 10.936900
4701.530000, 10.825100
4702.330000, 10.713300
4703.140000, 10.601600
4703.940000, 10.489400
4704.740000, 10.377000
4705.550000, 10.264500
4706.350000, 10.151100
4707.160000, 10.037700
4707.960000, 9.924010
4708.760000, 9.809730
4709.570000, 9.695500
4710.370000, 9.580830
4711.170000, 9.466020
4711.980000, 9.351210
4712.780000, 9.235780
4713.580000, 9.120390
4714.390000, 9.004480
4715.190000, 8.887820
4715.990000, 8.771190
4716.800000, 8.653750
4717.600000, 8.536060
4718.410000, 8.418440
4719.210000, 8.301460
4720.010000, 8.184520
4720.820000, 8.068520
4721.620000, 7.953940
4722.420000, 7.839390
4723.230000, 7.726170
4724.030000, 7.613470
4724.830000, 7.500800
4725.640000, 7.387900
4726.440000, 7.275040
4727.240000, 7.161850
4728.050000, 7.048070
4728.850000, 6.934330
4729.650000, 6.820840
4730.460000, 6.707500
4731.260000, 6.594200
4732.070000, 6.482240
4732.870000, 6.370320
4733.670000, 6.258810
4734.480000, 6.148140
4735.280000, 6.037510
4736.080000, 5.927720
4736.890000, 5.818460
4737.690000, 5.709240
4738.490000, 5.601590
4739.300000, 5.494110
4740.100000, 5.387010
4740.900000, 5.281140
4741.710000, 5.175300
4742.510000, 5.070400
4743.310000, 4.966300
4744.120000, 4.862240
4744.920000, 4.760120
4745.730000, 4.658420
4746.530000, 4.557060
4747.330000, 4.457670
4748.140000, 4.358330
4748.940000, 4.259800
4749.740000, 4.162340
4750.550000, 4.064920
4751.350000, 3.969310
4752.150000, 3.874420
4752.960000, 3.779610
4753.760000, 3.688390
4754.560000, 3.597200
4755.370000, 3.507140
4756.170000, 3.419670
4756.980000, 3.332240
4757.780000, 3.246440
4758.580000, 3.161820
4759.390000, 3.077230
4760.190000, 2.994600
4760.990000, 2.912290
4761.800000, 2.830420
4762.600000, 2.750960
4763.400000, 2.671520
4764.210000, 2.593610
4765.010000, 2.517730
4765.810000, 2.441880
4766.620000, 2.368610
4767.420000, 2.296450
4768.220000, 2.224310
4769.030000, 2.155830
4769.830000, 2.087470
4770.640000, 2.020050
4771.440000, 1.955450
4772.240000, 1.890880
4773.050000, 1.827870
4773.850000, 1.766320
4774.650000, 1.704790
4775.460000, 1.645350
4776.260000, 1.586520
4777.060000, 1.527880
4777.870000, 1.473230
4778.670000, 1.418590
4779.470000, 1.365570
4780.280000, 1.316230
4781.080000, 1.266900
4781.880000, 1.219800
4782.690000, 1.174450
4783.490000, 1.129110
4784.300000, 1.085760
4785.100000, 1.042870
4785.900000, 1.000160
4786.710000, 0.959779
4787.510000, 0.919413
4788.310000, 0.880041
4789.120000, 0.842772
4789.920000, 0.805516
4790.720000, 0.770441
4791.530000, 0.737032
4792.330000, 0.703635
4793.130000, 0.673743
4793.940000, 0.644669
4794.740000, 0.615769
4795.550000, 0.589705
4796.350000, 0.563649
4797.150000, 0.537941
4797.960000, 0.513053
4798.760000, 0.488174
4799.560000, 0.464092
4800.370000, 0.440711
4801.170000, 0.417338
4801.970000, 0.396312
4802.780000, 0.376002
4803.580000, 0.355698
4804.380000, 0.338481
4805.190000, 0.321270
4805.990000, 0.304486
4806.790000, 0.289117
4807.600000, 0.273754
4808.400000, 0.258926
4809.210000, 0.244732
4810.010000, 0.230543
4810.810000, 0.217199
4811.620000, 0.204250
4812.420000, 0.191306
4813.220000, 0.179919
4814.030000, 0.168702
4814.830000, 0.157776
4815.630000, 0.148902
4816.440000, 0.140030
4817.240000, 0.131895
4818.040000, 0.125181
4818.850000, 0.118470
4819.650000, 0.112382
4820.450000, 0.106794
4821.260000, 0.101207
4822.060000, 0.096020
4822.870000, 0.090955
4823.670000, 0.085892
4824.470000, 0.081358
4825.280000, 0.076839
4826.080000, 0.072365
4826.880000, 0.068088
4827.690000, 0.063812
4828.490000, 0.059576
4829.290000, 0.055403
4830.100000, 0.051230
4830.900000, 0.047551
4831.700000, 0.044218
4832.510000, 0.040886
4833.310000, 0.038714
4834.120000, 0.036856
4834.920000, 0.034999
4835.720000, 0.034125
4836.530000, 0.033269
4837.330000, 0.032429
4838.130000, 0.031668
4838.940000, 0.030907
4839.740000, 0.030086
4840.540000, 0.029163
4841.350000, 0.028241
4842.150000, 0.027325
4842.950000, 0.026414
4843.760000, 0.025504
4844.560000, 0.024613
4845.360000, 0.023728
4846.170000, 0.022843
4846.970000, 0.021877
4847.780000, 0.020904
4848.580000, 0.019911
4849.380000, 0.018736
4850.190000, 0.017561
4850.990000, 0.016320
4851.790000, 0.014907
4852.600000, 0.013494
4853.400000, 0.012045
4854.200000, 0.010551
4855.010000, 0.009059
4855.810000, 0.007635
4856.610000, 0.006252
4857.420000, 0.004870
4858.220000, 0.003770
4859.030000, 0.002740
4859.830000, 0.001711
4860.630000, 0.001436
4861.440000, 0.001186
4862.240000, 0.001042
4863.040000, 0.001596
4863.850000, 0.002150
4864.650000, 0.002724
4865.450000, 0.003346
4866.260000, 0.003967
4867.060000, 0.004328
4867.860000, 0.004375
4868.670000, 0.004421
4869.470000, 0.004328
4870.270000, 0.004145
4871.080000, 0.003962
4871.880000, 0.004000
4872.690000, 0.004105
4873.490000, 0.004211
4874.290000, 0.004188
4875.100000, 0.004152
4875.900000, 0.004077
4876.700000, 0.003402
4877.510000, 0.002728
4878.310000, 0.002065
4879.110000, 0.001443
4879.920000, 0.000821
4880.720000, 0.000607
4881.520000, 0.001146
4882.330000, 0.001684
4883.130000, 0.002599
4883.930000, 0.003904
4884.740000, 0.005208
4885.540000, 0.005906
4886.350000, 0.006247
4887.150000, 0.006589
4887.950000, 0.005513
4888.760000, 0.004002
4889.560000, 0.002493
4890.360000, 0.001607
4891.170000, 0.000793
4891.970000, 0.000001
4892.770000, 0.000001
4893.580000, 0.000001
4894.380000, 0.000001
4895.180000, 0.000001
4895.990000, 0.000001
4896.790000, 0.000001
4897.600000, 0.000001
4898.400000, 0.000001
4899.200000, 0.000394
4900.010000, 0.001377
4900.810000, 0.002360
4901.610000, 0.003016
4902.420000, 0.003369
4903.220000, 0.003722
4904.020000, 0.003749
4904.830000, 0.003589
4905.630000, 0.003428
4906.430000, 0.003110
4907.240000, 0.002739
4908.040000, 0.002369
4908.840000, 0.001898
4909.650000, 0.001411
4910.450000, 0.000924
4911.260000, 0.000605
4912.060000, 0.000292
4912.860000, 0.000001
4913.670000, 0.000001
4914.470000, 0.000001
4915.270000, 0.000001
4916.080000, 0.000001
4916.880000, 0.000001
4917.680000, 0.000001
4918.490000, 0.000001
4919.290000, 0.000001
4920.090000, 0.000001
4920.900000, 0.000001
4921.700000, 0.000001
4922.500000, 0.000001
4923.310000, 0.000001
4924.110000, 0.000001
4924.920000, 0.000001
4925.720000, 0.000001
4926.520000, 0.000001
4927.330000, 0.000001
4928.130000, 0.000001
4928.930000, 0.000001
4929.740000, 0.000256
4930.540000, 0.000605
4931.340000, 0.000953
4932.150000, 0.002228
4932.950000, 0.003714
4933.750000, 0.005200
4934.560000, 0.006188
4935.360000, 0.007117
4936.170000, 0.008045
4936.970000, 0.007477
4937.770000, 0.006865
4938.580000, 0.006222
4939.380000, 0.004936
4940.180000, 0.003651
4940.990000, 0.002460
4941.790000, 0.001970
4942.590000, 0.001480
4943.400000, 0.001156
4944.200000, 0.001552
4945.000000, 0.001948
4945.810000, 0.002380
4946.610000, 0.002917
4947.410000, 0.003455
4948.220000, 0.003933
4949.020000, 0.004284
4949.830000, 0.004635
4950.630000, 0.004944
4951.430000, 0.005186
4952.240000, 0.005427
4953.040000, 0.005711
4953.840000, 0.006050
4954.650000, 0.006389
4955.450000, 0.006663
4956.250000, 0.006872
4957.060000, 0.007081
4957.860000, 0.006817
4958.660000, 0.006157
4959.470000, 0.005497
4960.270000, 0.004711
4961.080000, 0.003840
4961.880000, 0.002968
4962.680000, 0.002898
4963.490000, 0.003277
4964.290000, 0.003656
4965.090000, 0.004395
4965.900000, 0.005301
4966.700000, 0.006207
4967.500000, 0.006550
4968.310000, 0.006680
4969.110000, 0.006810
4969.910000, 0.007210
4970.720000, 0.007692
4971.520000, 0.008174
4972.320000, 0.009656
4973.130000, 0.011390
4973.930000, 0.013123
4974.740000, 0.014264
4975.540000, 0.015286
4976.340000, 0.016307
4977.150000, 0.015462
4977.950000, 0.014315
4978.750000, 0.013169
4979.560000, 0.011478
4980.360000, 0.009719
4981.160000, 0.007960
4981.970000, 0.007299
4982.770000, 0.006744
4983.570000, 0.006190
4984.380000, 0.006507
4985.180000, 0.006887
4985.980000, 0.007267
4986.790000, 0.007748
4987.590000, 0.008235
4988.400000, 0.008721
4989.200000, 0.009510
4990.000000, 0.010310
4990.810000, 0.011110
4991.610000, 0.011866
4992.410000, 0.012620
4993.220000, 0.013375
4994.020000, 0.012733
4994.820000, 0.012074
4995.630000, 0.011416
4996.430000, 0.009811
4997.230000, 0.008201
4998.040000, 0.006592
4998.840000, 0.005880
4999.650000, 0.005169
5000.000000, 0.004458
