# Wavelength  (nm), Transmission (%)
200.000000, 0.000084
201.000000, 0.000074
202.000000, 0.000059
203.000000, 0.000042
204.000000, 0.000028
205.000000, 0.000022
206.000000, 0.000034
207.000000, 0.000045
208.000000, 0.000037
209.000000, 0.000028
210.000000, 0.000016
211.000000, 0.000019
212.000000, 0.000016
213.000000, 0.000015
214.000000, 0.000011
215.000000, 0.000011
216.000000, 0.000010
217.000000, 0.000021
218.000000, 0.000014
219.000000, 0.000017
220.000000, 0.000014
221.000000, 0.000022
222.000000, 0.000028
223.000000, 0.000025
224.000000, 0.000032
225.000000, 0.000032
226.000000, 0.000027
227.000000, 0.000013
228.000000, 0.000007
229.000000, 0.000013
230.000000, 0.000016
231.000000, 0.000016
232.000000, 0.000010
233.000000, 0.000018
234.000000, 0.000022
235.000000, 0.000023
236.000000, 0.000013
237.000000, 0.000003
238.000000, 0.000011
239.000000, 0.000014
240.000000, 0.000018
241.000000, 0.000015
242.000000, 0.000014
243.000000, 0.000010
244.000000, 0.000013
245.000000, 0.000023
246.000000, 0.000024
247.000000, 0.000016
248.000000, 0.000007
249.000000, 0.000004
250.000000, 0.000004
251.000000, 0.000009
252.000000, 0.000018
253.000000, 0.000018
254.000000, 0.000024
255.000000, 0.000017
256.000000, 0.000020
257.000000, 0.000022
258.000000, 0.000020
259.000000, 0.000017
260.000000, 0.000017
261.000000, 0.000022
262.000000, 0.000025
263.000000, 0.000019
264.000000, 0.000016
265.000000, 0.000020
266.000000, 0.000014
267.000000, 0.000019
268.000000, 0.000029
269.000000, 0.000043
270.000000, 0.000039
271.000000, 0.000039
272.000000, 0.000028
273.000000, 0.000027
274.000000, 0.000016
275.000000, 0.000031
276.000000, 0.000030
277.000000, 0.000025
278.000000, 0.000010
279.000000, 0.000026
280.000000, 0.000040
281.000000, 0.000058
282.000000, 0.000050
283.000000, 0.000049
284.000000, 0.000045
285.000000, 0.000061
286.000000, 0.000070
287.000000, 0.000071
288.000000, 0.000046
289.000000, 0.000043
290.000000, 0.000024
291.000000, 0.000037
292.000000, 0.000028
293.000000, 0.000044
294.000000, 0.000034
295.000000, 0.000027
296.000000, 0.000017
297.000000, 0.000015
298.000000, 0.000022
299.000000, 0.000024
300.000000, 0.000038
301.000000, 0.000040
302.000000, 0.000033
303.000000, 0.000025
304.000000, 0.000035
305.000000, 0.000052
306.000000, 0.000057
307.000000, 0.000046
308.000000, 0.000035
309.000000, 0.000031
310.000000, 0.000030
311.000000, 0.000032
312.000000, 0.000041
313.000000, 0.000037
314.000000, 0.000030
315.000000, 0.000020
316.000000, 0.000043
317.000000, 0.000043
318.000000, 0.000042
319.000000, 0.000025
320.000000, 0.000036
321.000000, 0.000036
322.000000, 0.000034
323.000000, 0.000019
324.000000, 0.000022
325.000000, 0.000019
326.000000, 0.000035
327.000000, 0.000026
328.000000, 0.000025
329.000000, 0.000012
330.000000, 0.000014
331.000000, 0.000020
332.000000, 0.000016
333.000000, 0.000013
334.000000, 0.000003
335.000000, 0.000013
336.000000, 0.000021
337.000000, 0.000024
338.000000, 0.000021
339.000000, 0.000014
340.000000, 0.000010
341.000000, 0.000006
342.000000, 0.000006
343.000000, 0.000013
344.000000, 0.000018
345.000000, 0.000022
346.000000, 0.000016
347.000000, 0.000013
348.000000, 0.000013
349.000000, 0.000016
350.000000, 0.000013
351.000000, 0.000016
352.000000, 0.000021
353.000000, 0.000030
354.000000, 0.000024
355.000000, 0.000015
356.000000, 0.000005
357.000000, 0.000012
358.000000, 0.000032
359.000000, 0.000047
360.000000, 0.000067
361.000000, 0.000056
362.000000, 0.000069
363.000000, 0.000091
364.000000, 0.000150
365.000000, 0.000197
366.000000, 0.000240
367.000000, 0.000266
368.000000, 0.000315
369.000000, 0.000371
370.000000, 0.000468
371.000000, 0.000547
372.000000, 0.000610
373.000000, 0.000624
374.000000, 0.000628
375.000000, 0.000637
376.000000, 0.000672
377.000000, 0.000682
378.000000, 0.000719
379.000000, 0.000789
380.000000, 0.000973
381.000000, 0.001221
382.000000, 0.001544
383.000000, 0.001935
384.000000, 0.002404
385.000000, 0.002968
386.000000, 0.003639
387.000000, 0.004418
388.000000, 0.005317
389.000000, 0.006296
390.000000, 0.007366
391.000000, 0.008486
392.000000, 0.009658
393.000000, 0.010884
394.000000, 0.012154
395.000000, 0.013473
396.000000, 0.014785
397.000000, 0.016085
398.000000, 0.017416
399.000000, 0.018745
400.000000, 0.020040
401.000000, 0.021222
402.000000, 0.022300
403.000000, 0.023283
404.000000, 0.024156
405.000000, 0.024958
406.000000, 0.025722
407.000000, 0.026452
408.000000, 0.027050
409.000000, 0.027582
410.000000, 0.028101
411.000000, 0.028703
412.000000, 0.029358
413.000000, 0.030058
414.000000, 0.030743
415.000000, 0.031438
416.000000, 0.032189
417.000000, 0.033098
418.000000, 0.034109
419.000000, 0.035170
420.000000, 0.036201
421.000000, 0.037241
422.000000, 0.038281
423.000000, 0.039407
424.000000, 0.040589
425.000000, 0.041758
426.000000, 0.042765
427.000000, 0.043675
428.000000, 0.044540
429.000000, 0.045434
430.000000, 0.046232
431.000000, 0.046873
432.000000, 0.047268
433.000000, 0.047501
434.000000, 0.047620
435.000000, 0.047768
436.000000, 0.047891
437.000000, 0.047972
438.000000, 0.048016
439.000000, 0.048130
440.000000, 0.048456
441.000000, 0.049041
442.000000, 0.049830
443.000000, 0.050741
444.000000, 0.051738
445.000000, 0.052888
446.000000, 0.054258
447.000000, 0.055868
448.000000, 0.057676
449.000000, 0.059500
450.000000, 0.061223
451.000000, 0.062877
452.000000, 0.064566
453.000000, 0.066366
454.000000, 0.068183
455.000000, 0.069890
456.000000, 0.071423
457.000000, 0.072775
458.000000, 0.074095
459.000000, 0.075388
460.000000, 0.076627
461.000000, 0.077640
462.000000, 0.078299
463.000000, 0.078735
464.000000, 0.079055
465.000000, 0.079375
466.000000, 0.079613
467.000000, 0.079702
468.000000, 0.079597
469.000000, 0.079284
470.000000, 0.078926
471.000000, 0.078588
472.000000, 0.078260
473.000000, 0.077856
474.000000, 0.077341
475.000000, 0.076786
476.000000, 0.076275
477.000000, 0.075825
478.000000, 0.075358
479.000000, 0.074791
480.000000, 0.074095
481.000000, 0.073351
482.000000, 0.072654
483.000000, 0.072081
484.000000, 0.071611
485.000000, 0.071108
486.000000, 0.070578
487.000000, 0.070057
488.000000, 0.069502
489.000000, 0.068976
490.000000, 0.068486
491.000000, 0.068061
492.000000, 0.067642
493.000000, 0.067214
494.000000, 0.066900
495.000000, 0.066702
496.000000, 0.066544
497.000000, 0.066332
498.000000, 0.066017
499.000000, 0.065676
500.000000, 0.065363
501.000000, 0.065180
502.000000, 0.065080
503.000000, 0.064974
504.000000, 0.064809
505.000000, 0.064649
506.000000, 0.064559
507.000000, 0.064612
508.000000, 0.064763
509.000000, 0.064940
510.000000, 0.065089
511.000000, 0.065172
512.000000, 0.065258
513.000000, 0.065471
514.000000, 0.065794
515.000000, 0.066187
516.000000, 0.066494
517.000000, 0.066769
518.000000, 0.067128
519.000000, 0.067620
520.000000, 0.068223
521.000000, 0.068788
522.000000, 0.069258
523.000000, 0.069705
524.000000, 0.070240
525.000000, 0.070962
526.000000, 0.071699
527.000000, 0.072409
528.000000, 0.073058
529.000000, 0.073739
530.000000, 0.074608
531.000000, 0.075570
532.000000, 0.076528
533.000000, 0.077417
534.000000, 0.078219
535.000000, 0.078980
536.000000, 0.079738
537.000000, 0.080466
538.000000, 0.081204
539.000000, 0.081950
540.000000, 0.082677
541.000000, 0.083337
542.000000, 0.083833
543.000000, 0.084283
544.000000, 0.084769
545.000000, 0.085269
546.000000, 0.085755
547.000000, 0.086052
548.000000, 0.086166
549.000000, 0.086213
550.000000, 0.086245
551.000000, 0.086331
552.000000, 0.086400
553.000000, 0.086336
554.000000, 0.086030
555.000000, 0.085585
556.000000, 0.085287
557.000000, 0.085029
558.000000, 0.084654
559.000000, 0.084090
560.000000, 0.083525
561.000000, 0.082949
562.000000, 0.082408
563.000000, 0.081815
564.000000, 0.081172
565.000000, 0.080514
566.000000, 0.079867
567.000000, 0.079172
568.000000, 0.078443
569.000000, 0.077662
570.000000, 0.076973
571.000000, 0.076330
572.000000, 0.075662
573.000000, 0.074967
574.000000, 0.074208
575.000000, 0.073522
576.000000, 0.072934
577.000000, 0.072356
578.000000, 0.071761
579.000000, 0.071106
580.000000, 0.070600
581.000000, 0.070225
582.000000, 0.069887
583.000000, 0.069506
584.000000, 0.069129
585.000000, 0.068922
586.000000, 0.068813
587.000000, 0.068837
588.000000, 0.068927
589.000000, 0.068997
590.000000, 0.069088
591.000000, 0.069258
592.000000, 0.069632
593.000000, 0.070051
594.000000, 0.070423
595.000000, 0.070777
596.000000, 0.071313
597.000000, 0.071981
598.000000, 0.072778
599.000000, 0.073540
600.000000, 0.074336
601.000000, 0.075045
602.000000, 0.075741
603.000000, 0.076451
604.000000, 0.077259
605.000000, 0.078128
606.000000, 0.079110
607.000000, 0.080038
608.000000, 0.080991
609.000000, 0.081886
610.000000, 0.082903
611.000000, 0.083834
612.000000, 0.084880
613.000000, 0.085889
614.000000, 0.086921
615.000000, 0.087863
616.000000, 0.088905
617.000000, 0.090006
618.000000, 0.091131
619.000000, 0.092082
620.000000, 0.092939
621.000000, 0.093695
622.000000, 0.094501
623.000000, 0.095401
624.000000, 0.096343
625.000000, 0.097365
626.000000, 0.098174
627.000000, 0.098956
628.000000, 0.099567
629.000000, 0.100177
630.000000, 0.100791
631.000000, 0.101484
632.000000, 0.102132
633.000000, 0.102612
634.000000, 0.102957
635.000000, 0.103483
636.000000, 0.104214
637.000000, 0.104870
638.000000, 0.105428
639.000000, 0.105886
640.000000, 0.106555
641.000000, 0.107261
642.000000, 0.108119
643.000000, 0.108957
644.000000, 0.109936
645.000000, 0.110767
646.000000, 0.111669
647.000000, 0.112635
648.000000, 0.113711
649.000000, 0.114910
650.000000, 0.116264
651.000000, 0.117731
652.000000, 0.119086
653.000000, 0.120396
654.000000, 0.122052
655.000000, 0.124170
656.000000, 0.126244
657.000000, 0.128170
658.000000, 0.130116
659.000000, 0.132441
660.000000, 0.135213
661.000000, 0.138213
662.000000, 0.141221
663.000000, 0.144227
664.000000, 0.147484
665.000000, 0.151063
666.000000, 0.155139
667.000000, 0.159263
668.000000, 0.164035
669.000000, 0.168653
670.000000, 0.173613
671.000000, 0.178818
672.000000, 0.184641
673.000000, 0.190666
674.000000, 0.196939
675.000000, 0.203563
676.000000, 0.210730
677.000000, 0.218341
678.000000, 0.226513
679.000000, 0.235330
680.000000, 0.243976
681.000000, 0.252615
682.000000, 0.261585
683.000000, 0.271000
684.000000, 0.281385
685.000000, 0.291443
686.000000, 0.302211
687.000000, 0.312286
688.000000, 0.323263
689.000000, 0.334344
690.000000, 0.346162
691.000000, 0.357635
692.000000, 0.368904
693.000000, 0.380026
694.000000, 0.390808
695.000000, 0.401804
696.000000, 0.412792
697.000000, 0.423775
698.000000, 0.434941
699.000000, 0.445912
700.000000, 0.457097
701.000000, 0.467070
702.000000, 0.478045
703.000000, 0.488034
704.000000, 0.498527
705.000000, 0.507595
706.000000, 0.517303
707.000000, 0.527195
708.000000, 0.536952
709.000000, 0.546588
710.000000, 0.554722
711.000000, 0.562569
712.000000, 0.570632
713.000000, 0.579194
714.000000, 0.587585
715.000000, 0.595831
716.000000, 0.603642
717.000000, 0.611730
718.000000, 0.617933
719.000000, 0.626052
720.000000, 0.632820
721.000000, 0.640653
722.000000, 0.646368
723.000000, 0.651803
724.000000, 0.657836
725.000000, 0.664036
726.000000, 0.670736
727.000000, 0.676546
728.000000, 0.681397
729.000000, 0.687992
730.000000, 0.692562
731.000000, 0.698706
732.000000, 0.703904
733.000000, 0.709232
734.000000, 0.713737
735.000000, 0.717962
736.000000, 0.722484
737.000000, 0.727479
738.000000, 0.731959
739.000000, 0.736419
740.000000, 0.739653
741.000000, 0.742998
742.000000, 0.747307
743.000000, 0.751467
744.000000, 0.756045
745.000000, 0.759069
746.000000, 0.762744
747.000000, 0.765100
748.000000, 0.769067
749.000000, 0.772752
750.000000, 0.776704
751.000000, 0.779864
752.000000, 0.782798
753.000000, 0.785884
754.000000, 0.789457
755.000000, 0.792762
756.000000, 0.796756
757.000000, 0.798699
758.000000, 0.800748
759.000000, 0.801585
760.000000, 0.804926
761.000000, 0.807469
762.000000, 0.810650
763.000000, 0.811950
764.000000, 0.814137
765.000000, 0.816270
766.000000, 0.819538
767.000000, 0.821527
768.000000, 0.824285
769.000000, 0.825285
770.000000, 0.826975
771.000000, 0.827472
772.000000, 0.828990
773.000000, 0.830596
774.000000, 0.832745
775.000000, 0.834003
776.000000, 0.835352
777.000000, 0.836652
778.000000, 0.838751
779.000000, 0.839540
780.000000, 0.841132
781.000000, 0.843053
782.000000, 0.844301
783.000000, 0.843581
784.000000, 0.843329
785.000000, 0.844217
786.000000, 0.844991
787.000000, 0.845737
788.000000, 0.847181
789.000000, 0.848788
790.000000, 0.849369
791.000000, 0.849743
792.000000, 0.849705
793.000000, 0.850394
794.000000, 0.850581
795.000000, 0.850546
796.000000, 0.849996
797.000000, 0.850516
798.000000, 0.851114
799.000000, 0.851890
800.000000, 0.851996
801.000000, 0.850478
802.000000, 0.849440
803.000000, 0.848482
804.000000, 0.849131
805.000000, 0.849454
806.000000, 0.849568
807.000000, 0.849031
808.000000, 0.848295
809.000000, 0.847396
810.000000, 0.847602
811.000000, 0.848298
812.000000, 0.848198
813.000000, 0.847042
814.000000, 0.846265
815.000000, 0.846269
816.000000, 0.845754
817.000000, 0.844324
818.000000, 0.842970
819.000000, 0.842985
820.000000, 0.841433
821.000000, 0.840400
822.000000, 0.838672
823.000000, 0.838240
824.000000, 0.837859
825.000000, 0.838553
826.000000, 0.837884
827.000000, 0.836700
828.000000, 0.834769
829.000000, 0.834051
830.000000, 0.832619
831.000000, 0.832351
832.000000, 0.831974
833.000000, 0.831540
834.000000, 0.830361
835.000000, 0.829244
836.000000, 0.827647
837.000000, 0.826189
838.000000, 0.824838
839.000000, 0.824502
840.000000, 0.823180
841.000000, 0.821600
842.000000, 0.820181
843.000000, 0.819331
844.000000, 0.818776
845.000000, 0.817205
846.000000, 0.814832
847.000000, 0.811690
848.000000, 0.809429
849.000000, 0.809112
850.000000, 0.809532
851.000000, 0.809108
852.000000, 0.807418
853.000000, 0.805435
854.000000, 0.802419
855.000000, 0.799863
856.000000, 0.797722
857.000000, 0.796947
858.000000, 0.794149
859.000000, 0.789759
860.000000, 0.782240
861.000000, 0.769902
862.000000, 0.758688
863.000000, 0.752653
864.000000, 0.757337
865.000000, 0.766518
866.000000, 0.775995
867.000000, 0.774372
868.000000, 0.762789
869.000000, 0.748786
870.000000, 0.740963
871.000000, 0.738241
872.000000, 0.738389
873.000000, 0.742183
874.000000, 0.746860
875.000000, 0.748774
876.000000, 0.746724
877.000000, 0.741265
878.000000, 0.734218
879.000000, 0.729141
880.000000, 0.731148
881.000000, 0.736480
882.000000, 0.740645
883.000000, 0.736144
884.000000, 0.725111
885.000000, 0.715421
886.000000, 0.717288
887.000000, 0.727170
888.000000, 0.729890
889.000000, 0.720522
890.000000, 0.707535
891.000000, 0.702140
892.000000, 0.706246
893.000000, 0.713524
894.000000, 0.718384
895.000000, 0.713049
896.000000, 0.701110
897.000000, 0.691346
898.000000, 0.689794
899.000000, 0.695844
900.000000, 0.701280
901.000000, 0.697928
902.000000, 0.685709
903.000000, 0.675781
904.000000, 0.679117
905.000000, 0.689662
906.000000, 0.692245
907.000000, 0.685892
908.000000, 0.680854
909.000000, 0.678682
910.000000, 0.673047
911.000000, 0.664402
912.000000, 0.662245
913.000000, 0.663636
914.000000, 0.661223
915.000000, 0.654606
916.000000, 0.652798
917.000000, 0.659834
918.000000, 0.669576
919.000000, 0.672560
920.000000, 0.663162
921.000000, 0.650258
922.000000, 0.646317
923.000000, 0.652871
924.000000, 0.657090
925.000000, 0.648485
926.000000, 0.635951
927.000000, 0.633255
928.000000, 0.642477
929.000000, 0.649208
930.000000, 0.640737
931.000000, 0.623335
932.000000, 0.612935
933.000000, 0.617350
934.000000, 0.631384
935.000000, 0.637683
936.000000, 0.631954
937.000000, 0.622353
938.000000, 0.619848
939.000000, 0.622064
940.000000, 0.624093
941.000000, 0.621452
942.000000, 0.614134
943.000000, 0.607485
944.000000, 0.606750
945.000000, 0.610795
946.000000, 0.614882
947.000000, 0.612952
948.000000, 0.605690
949.000000, 0.599654
950.000000, 0.600383
951.000000, 0.603561
952.000000, 0.600040
953.000000, 0.593078
954.000000, 0.589993
955.000000, 0.592948
956.000000, 0.595131
957.000000, 0.597246
958.000000, 0.594907
959.000000, 0.589708
960.000000, 0.585652
961.000000, 0.584542
962.000000, 0.588723
963.000000, 0.590989
964.000000, 0.589718
965.000000, 0.588843
966.000000, 0.587904
967.000000, 0.584983
968.000000, 0.575594
969.000000, 0.569954
970.000000, 0.570663
971.000000, 0.577974
972.000000, 0.582325
973.000000, 0.581816
974.000000, 0.577349
975.000000, 0.575681
976.000000, 0.575443
977.000000, 0.573863
978.000000, 0.572525
979.000000, 0.572017
980.000000, 0.568895
981.000000, 0.561325
982.000000, 0.558387
983.000000, 0.559791
984.000000, 0.562232
985.000000, 0.567199
986.000000, 0.573078
987.000000, 0.575023
988.000000, 0.566833
989.000000, 0.556720
990.000000, 0.556185
991.000000, 0.558999
992.000000, 0.559587
993.000000, 0.551672
994.000000, 0.543514
995.000000, 0.545073
996.000000, 0.549923
997.000000, 0.554710
998.000000, 0.552752
999.000000, 0.554805
1000.000000, 0.556883
1001.000000, 0.555965
1002.000000, 0.548364
1003.000000, 0.542040
1004.000000, 0.546234
1005.000000, 0.553493
1006.000000, 0.558445
1007.000000, 0.552592
1008.000000, 0.544158
1009.000000, 0.539726
1010.000000, 0.542824
1011.000000, 0.548335
1012.000000, 0.551813
1013.000000, 0.548133
1014.000000, 0.541161
1015.000000, 0.535584
1016.000000, 0.538771
1017.000000, 0.547139
1018.000000, 0.550526
1019.000000, 0.546872
1020.000000, 0.537535
1021.000000, 0.532585
1022.000000, 0.535193
1023.000000, 0.542603
1024.000000, 0.547588
1025.000000, 0.543543
1026.000000, 0.538331
1027.000000, 0.535317
1028.000000, 0.539938
1029.000000, 0.545063
1030.000000, 0.547997
1031.000000, 0.544380
1032.000000, 0.537535
1033.000000, 0.530356
1034.000000, 0.524623
1035.000000, 0.528774
1036.000000, 0.535942
1037.000000, 0.542225
1038.000000, 0.539890
1039.000000, 0.533889
1040.000000, 0.529604
1041.000000, 0.532820
1042.000000, 0.539677
1043.000000, 0.544706
1044.000000, 0.542491
1045.000000, 0.537381
1046.000000, 0.533646
1047.000000, 0.527303
1048.000000, 0.523802
1049.000000, 0.530043
1050.000000, 0.539599
1051.000000, 0.547974
1052.000000, 0.545195
1053.000000, 0.540653
1054.000000, 0.534410
1055.000000, 0.529338
1056.000000, 0.525588
1057.000000, 0.534277
1058.000000, 0.543620
1059.000000, 0.552989
1060.000000, 0.552438
1061.000000, 0.549474
1062.000000, 0.545419
1063.000000, 0.541389
1064.000000, 0.536562
1065.000000, 0.530954
1066.000000, 0.523415
1067.000000, 0.521751
1068.000000, 0.532125
1069.000000, 0.544838
1070.000000, 0.553500
1071.000000, 0.553818
1072.000000, 0.553220
1073.000000, 0.551024
1074.000000, 0.545279
1075.000000, 0.537494
1076.000000, 0.532603
1077.000000, 0.540956
1078.000000, 0.551978
1079.000000, 0.560167
1080.000000, 0.555333
1081.000000, 0.549056
1082.000000, 0.543298
1083.000000, 0.538911
1084.000000, 0.545108
1085.000000, 0.554289
1086.000000, 0.562031
1087.000000, 0.560908
1088.000000, 0.557038
1089.000000, 0.552766
1090.000000, 0.547375
1091.000000, 0.544369
1092.000000, 0.555049
1093.000000, 0.565574
1094.000000, 0.575672
1095.000000, 0.572183
1096.000000, 0.567151
1097.000000, 0.559641
1098.000000, 0.554815
1099.000000, 0.550871
1100.000000, 0.552026
1101.000000, 0.562987
1102.000000, 0.574643
1103.000000, 0.585351
1104.000000, 0.585872
1105.000000, 0.586389
1106.000000, 0.583271
1107.000000, 0.581388
1108.000000, 0.581148
1109.000000, 0.581199
1110.000000, 0.578415
1111.000000, 0.576297
1112.000000, 0.573377
1113.000000, 0.571287
1114.000000, 0.570990
1115.000000, 0.570132
1116.000000, 0.568752
1117.000000, 0.564142
1118.000000, 0.559849
1119.000000, 0.556350
1120.000000, 0.560284
1121.000000, 0.576780
1122.000000, 0.591610
1123.000000, 0.597142
1124.000000, 0.592416
1125.000000, 0.592591
1126.000000, 0.605649
1127.000000, 0.619415
1128.000000, 0.626050
1129.000000, 0.613849
1130.000000, 0.588949
1131.000000, 0.571644
1132.000000, 0.573067
1133.000000, 0.598582
1134.000000, 0.611856
1135.000000, 0.606948
1136.000000, 0.590665
1137.000000, 0.597992
1138.000000, 0.611419
1139.000000, 0.625622
1140.000000, 0.625314
1141.000000, 0.626028
1142.000000, 0.627970
1143.000000, 0.631204
1144.000000, 0.634242
1145.000000, 0.633053
1146.000000, 0.630675
1147.000000, 0.627006
1148.000000, 0.627528
1149.000000, 0.636017
1150.000000, 0.647777
1151.000000, 0.657460
1152.000000, 0.657508
1153.000000, 0.656130
1154.000000, 0.654818
1155.000000, 0.654812
1156.000000, 0.653753
1157.000000, 0.651767
1158.000000, 0.649457
1159.000000, 0.646919
1160.000000, 0.643967
1161.000000, 0.646150
1162.000000, 0.659127
1163.000000, 0.676199
1164.000000, 0.687355
1165.000000, 0.691107
1166.000000, 0.690065
1167.000000, 0.693616
1168.000000, 0.696300
1169.000000, 0.700908
1170.000000, 0.703148
1171.000000, 0.705158
1172.000000, 0.707021
1173.000000, 0.710111
1174.000000, 0.712871
1175.000000, 0.715317
1176.000000, 0.718964
1177.000000, 0.723965
1178.000000, 0.729850
1179.000000, 0.732193
1180.000000, 0.731777
1181.000000, 0.726398
1182.000000, 0.723280
1183.000000, 0.720162
1184.000000, 0.727627
1185.000000, 0.749148
1186.000000, 0.782520
1187.000000, 0.820716
1188.000000, 0.835960
1189.000000, 0.809969
1190.000000, 0.772902
1191.000000, 0.744287
1192.000000, 0.747871
1193.000000, 0.750024
1194.000000, 0.751647
1195.000000, 0.755762
1196.000000, 0.772267
1197.000000, 0.786672
1198.000000, 0.793914
1199.000000, 0.787128
1200.000000, 0.785083
1201.000000, 0.795233
1202.000000, 0.805715
1203.000000, 0.810517
1204.000000, 0.808864
1205.000000, 0.821398
1206.000000, 0.836500
1207.000000, 0.846201
1208.000000, 0.843051
1209.000000, 0.839201
1210.000000, 0.839437
1211.000000, 0.842517
1212.000000, 0.847893
1213.000000, 0.855445
1214.000000, 0.863893
1215.000000, 0.872837
1216.000000, 0.871420
1217.000000, 0.860948
1218.000000, 0.852494
1219.000000, 0.855074
1220.000000, 0.868777
1221.000000, 0.882603
1222.000000, 0.888572
1223.000000, 0.884164
1224.000000, 0.877829
1225.000000, 0.877426
1226.000000, 0.886042
1227.000000, 0.893676
1228.000000, 0.903108
1229.000000, 0.914711
1230.000000, 0.924672
1231.000000, 0.930584
1232.000000, 0.932227
1233.000000, 0.936494
1234.000000, 0.938484
1235.000000, 0.939367
1236.000000, 0.948236
1237.000000, 0.970359
1238.000000, 0.992079
1239.000000, 1.003489
1240.000000, 1.003617
1241.000000, 1.003891
1242.000000, 1.003369
1243.000000, 1.004563
1244.000000, 1.017084
1245.000000, 1.043934
1246.000000, 1.072653
1247.000000, 1.091747
1248.000000, 1.084724
1249.000000, 1.061508
1250.000000, 1.041167
1251.000000, 1.037040
1252.000000, 1.050926
1253.000000, 1.066772
1254.000000, 1.083438
1255.000000, 1.097681
1256.000000, 1.101650
1257.000000, 1.098884
1258.000000, 1.098035
1259.000000, 1.108245
1260.000000, 1.123277
1261.000000, 1.126395
1262.000000, 1.118794
1263.000000, 1.115403
1264.000000, 1.127712
1265.000000, 1.150610
1266.000000, 1.173913
1267.000000, 1.190721
1268.000000, 1.189972
1269.000000, 1.173414
1270.000000, 1.157098
1271.000000, 1.153326
1272.000000, 1.162905
1273.000000, 1.185562
1274.000000, 1.219095
1275.000000, 1.252520
1276.000000, 1.274028
1277.000000, 1.281133
1278.000000, 1.285712
1279.000000, 1.286690
1280.000000, 1.286855
1281.000000, 1.285860
1282.000000, 1.298116
1283.000000, 1.324133
1284.000000, 1.349748
1285.000000, 1.365046
1286.000000, 1.371816
1287.000000, 1.380850
1288.000000, 1.387886
1289.000000, 1.392391
1290.000000, 1.396711
1291.000000, 1.401329
1292.000000, 1.409015
1293.000000, 1.419273
1294.000000, 1.435066
1295.000000, 1.456082
1296.000000, 1.475578
1297.000000, 1.485676
1298.000000, 1.477554
1299.000000, 1.460470
1300.000000, 1.452151
1301.000000, 1.464173
1302.000000, 1.491048
1303.000000, 1.516568
1304.000000, 1.541128
1305.000000, 1.571000
1306.000000, 1.602932
1307.000000, 1.607149
1308.000000, 1.591211
1309.000000, 1.573347
1310.000000, 1.570229
1311.000000, 1.575740
1312.000000, 1.581403
1313.000000, 1.593869
1314.000000, 1.610106
1315.000000, 1.621653
1316.000000, 1.636628
1317.000000, 1.652188
1318.000000, 1.674627
1319.000000, 1.693900
1320.000000, 1.710499
1321.000000, 1.727793
1322.000000, 1.745587
1323.000000, 1.761690
1324.000000, 1.776629
1325.000000, 1.795405
1326.000000, 1.820377
1327.000000, 1.847319
1328.000000, 1.875903
1329.000000, 1.909706
1330.000000, 1.935768
1331.000000, 1.925578
1332.000000, 1.894504
1333.000000, 1.868959
1334.000000, 1.881618
1335.000000, 1.908770
1336.000000, 1.940715
1337.000000, 1.971689
1338.000000, 2.002864
1339.000000, 2.008062
1340.000000, 2.003781
1341.000000, 2.019877
1342.000000, 2.062013
1343.000000, 2.078299
1344.000000, 2.042896
1345.000000, 2.022180
1346.000000, 2.065638
1347.000000, 2.149238
1348.000000, 2.190593
1349.000000, 2.162858
1350.000000, 2.068623
1351.000000, 1.974440
1352.000000, 1.974162
1353.000000, 2.146635
1354.000000, 2.380523
1355.000000, 2.470721
1356.000000, 2.310933
1357.000000, 2.018233
1358.000000, 1.823479
1359.000000, 1.903650
1360.000000, 2.183713
1361.000000, 2.417379
1362.000000, 2.499027
1363.000000, 2.454729
1364.000000, 2.373656
1365.000000, 2.307522
1366.000000, 2.267844
1367.000000, 2.271539
1368.000000, 2.295728
1369.000000, 2.394865
1370.000000, 2.549930
1371.000000, 2.671671
1372.000000, 2.704086
1373.000000, 2.737080
1374.000000, 2.809698
1375.000000, 2.844459
1376.000000, 2.708473
1377.000000, 2.385506
1378.000000, 2.066568
1379.000000, 1.963403
1380.000000, 2.157455
1381.000000, 2.534351
1382.000000, 2.827899
1383.000000, 2.875713
1384.000000, 2.729238
1385.000000, 2.651494
1386.000000, 2.811251
1387.000000, 3.035249
1388.000000, 3.046291
1389.000000, 2.861030
1390.000000, 2.642979
1391.000000, 2.507379
1392.000000, 2.460435
1393.000000, 2.658175
1394.000000, 3.046115
1395.000000, 3.133009
1396.000000, 2.817454
1397.000000, 2.461908
1398.000000, 2.660562
1399.000000, 3.144353
1400.000000, 3.321048
1401.000000, 3.127394
1402.000000, 2.882445
1403.000000, 2.888471
1404.000000, 2.911441
1405.000000, 2.862664
1406.000000, 2.883858
1407.000000, 3.109224
1408.000000, 3.369138
1409.000000, 3.376288
1410.000000, 3.156809
1411.000000, 2.956902
1412.000000, 3.035504
1413.000000, 3.172600
1414.000000, 3.213634
1415.000000, 3.122698
1416.000000, 3.125073
1417.000000, 3.210132
1418.000000, 3.296003
1419.000000, 3.275510
1420.000000, 3.222954
1421.000000, 3.273236
1422.000000, 3.413799
1423.000000, 3.537168
1424.000000, 3.483488
1425.000000, 3.384034
1426.000000, 3.330414
1427.000000, 3.345941
1428.000000, 3.362942
1429.000000, 3.397053
1430.000000, 3.463754
1431.000000, 3.519703
1432.000000, 3.536816
1433.000000, 3.541883
1434.000000, 3.572674
1435.000000, 3.630250
1436.000000, 3.704572
1437.000000, 3.740496
1438.000000, 3.687154
1439.000000, 3.620062
1440.000000, 3.582747
1441.000000, 3.611643
1442.000000, 3.661043
1443.000000, 3.773579
1444.000000, 3.876450
1445.000000, 3.899257
1446.000000, 3.776867
1447.000000, 3.708006
1448.000000, 3.740331
1449.000000, 3.853768
1450.000000, 3.913640
1451.000000, 3.923997
1452.000000, 3.939849
1453.000000, 3.991051
1454.000000, 4.065998
1455.000000, 4.115477
1456.000000, 4.066801
1457.000000, 4.007130
1458.000000, 3.999743
1459.000000, 4.072511
1460.000000, 4.113985
1461.000000, 4.077570
1462.000000, 4.050696
1463.000000, 4.063244
1464.000000, 4.140126
1465.000000, 4.166682
1466.000000, 4.089821
1467.000000, 4.008855
1468.000000, 3.992470
1469.000000, 4.177458
1470.000000, 4.358494
1471.000000, 4.498890
1472.000000, 4.486153
1473.000000, 4.352634
1474.000000, 4.242075
1475.000000, 4.173430
1476.000000, 4.209538
1477.000000, 4.242164
1478.000000, 4.392893
1479.000000, 4.557963
1480.000000, 4.711395
1481.000000, 4.691606
1482.000000, 4.591396
1483.000000, 4.492062
1484.000000, 4.447914
1485.000000, 4.479965
1486.000000, 4.491875
1487.000000, 4.499871
1488.000000, 4.502560
1489.000000, 4.520978
1490.000000, 4.540551
1491.000000, 4.559452
1492.000000, 4.599444
1493.000000, 4.637576
1494.000000, 4.705738
1495.000000, 4.766023
1496.000000, 4.837171
1497.000000, 4.849098
1498.000000, 4.773949
1499.000000, 4.686614
1500.000000, 4.646961
1501.000000, 4.686779
1502.000000, 4.759527
1503.000000, 4.826809
1504.000000, 4.932139
1505.000000, 4.965975
1506.000000, 4.913094
1507.000000, 4.839920
1508.000000, 4.828656
1509.000000, 4.890859
1510.000000, 4.961100
1511.000000, 5.019234
1512.000000, 5.063708
1513.000000, 4.992990
1514.000000, 4.929022
1515.000000, 4.899884
1516.000000, 4.966750
1517.000000, 5.058021
1518.000000, 5.137698
1519.000000, 5.175564
1520.000000, 5.113385
1521.000000, 5.051399
1522.000000, 5.035395
1523.000000, 5.082680
1524.000000, 5.132785
1525.000000, 5.188244
1526.000000, 5.263774
1527.000000, 5.296296
1528.000000, 5.222138
1529.000000, 5.153934
1530.000000, 5.119087
1531.000000, 5.154181
1532.000000, 5.180827
1533.000000, 5.218593
1534.000000, 5.288996
1535.000000, 5.351531
1536.000000, 5.410797
1537.000000, 5.421856
1538.000000, 5.352361
1539.000000, 5.276523
1540.000000, 5.240751
1541.000000, 5.285749
1542.000000, 5.317549
1543.000000, 5.364990
1544.000000, 5.416448
1545.000000, 5.491927
1546.000000, 5.536146
1547.000000, 5.520157
1548.000000, 5.438631
1549.000000, 5.361805
1550.000000, 5.331783
1551.000000, 5.371663
1552.000000, 5.445712
1553.000000, 5.522453
1554.000000, 5.610392
1555.000000, 5.610778
1556.000000, 5.526316
1557.000000, 5.415734
1558.000000, 5.394590
1559.000000, 5.466762
1560.000000, 5.558847
1561.000000, 5.637819
1562.000000, 5.717496
1563.000000, 5.737526
1564.000000, 5.656717
1565.000000, 5.568179
1566.000000, 5.551486
1567.000000, 5.642736
1568.000000, 5.738575
1569.000000, 5.736840
1570.000000, 5.624977
1571.000000, 5.529127
1572.000000, 5.504611
1573.000000, 5.595036
1574.000000, 5.679398
1575.000000, 5.751659
1576.000000, 5.749180
1577.000000, 5.662400
1578.000000, 5.591104
1579.000000, 5.553723
1580.000000, 5.592997
1581.000000, 5.652309
1582.000000, 5.734635
1583.000000, 5.814339
1584.000000, 5.843360
1585.000000, 5.823409
1586.000000, 5.737121
1587.000000, 5.665213
1588.000000, 5.625489
1589.000000, 5.640901
1590.000000, 5.653214
1591.000000, 5.673248
1592.000000, 5.691768
1593.000000, 5.714218
1594.000000, 5.730319
1595.000000, 5.744084
1596.000000, 5.774691
1597.000000, 5.812156
1598.000000, 5.835509
1599.000000, 5.843311
1600.000000, 5.859854
1601.000000, 5.901782
1602.000000, 5.958000
1603.000000, 6.006897
1604.000000, 6.051145
1605.000000, 6.078710
1606.000000, 6.055148
1607.000000, 5.936518
1608.000000, 5.816975
1609.000000, 5.752846
1610.000000, 5.769745
1611.000000, 5.801350
1612.000000, 5.835646
1613.000000, 5.862660
1614.000000, 5.867342
1615.000000, 5.856865
1616.000000, 5.855260
1617.000000, 5.865858
1618.000000, 5.890926
1619.000000, 5.930251
1620.000000, 5.992989
1621.000000, 6.050084
1622.000000, 6.038731
1623.000000, 5.939658
1624.000000, 5.846503
1625.000000, 5.813488
1626.000000, 5.854938
1627.000000, 5.904387
1628.000000, 5.974691
1629.000000, 6.025444
1630.000000, 5.994550
1631.000000, 5.888029
1632.000000, 5.808591
1633.000000, 5.815343
1634.000000, 5.887324
1635.000000, 5.966666
1636.000000, 6.023679
1637.000000, 6.003628
1638.000000, 5.917927
1639.000000, 5.841852
1640.000000, 5.848365
1641.000000, 5.924695
1642.000000, 6.000129
1643.000000, 6.003749
1644.000000, 5.919703
1645.000000, 5.823010
1646.000000, 5.798909
1647.000000, 5.853650
1648.000000, 5.920766
1649.000000, 5.993736
1650.000000, 6.048033
1651.000000, 6.019932
1652.000000, 5.920137
1653.000000, 5.835757
1654.000000, 5.826182
1655.000000, 5.875608
1656.000000, 5.930071
1657.000000, 5.999320
1658.000000, 6.069920
1659.000000, 6.127140
1660.000000, 6.182797
1661.000000, 6.230685
1662.000000, 6.212928
1663.000000, 6.117421
1664.000000, 6.013785
1665.000000, 6.001231
1666.000000, 6.105303
1667.000000, 6.250168
1668.000000, 6.293092
1669.000000, 6.165965
1670.000000, 5.963644
1671.000000, 5.820725
1672.000000, 5.791242
1673.000000, 5.814229
1674.000000, 5.868553
1675.000000, 5.933951
1676.000000, 6.009639
1677.000000, 6.056178
1678.000000, 6.012795
1679.000000, 5.906290
1680.000000, 5.790973
1681.000000, 5.765685
1682.000000, 5.801225
1683.000000, 5.850322
1684.000000, 5.895124
1685.000000, 5.952888
1686.000000, 6.041145
1687.000000, 6.108362
1688.000000, 6.055135
1689.000000, 5.928224
1690.000000, 5.820493
1691.000000, 5.814908
1692.000000, 5.866627
1693.000000, 5.917419
1694.000000, 5.957241
1695.000000, 5.987922
1696.000000, 6.027812
1697.000000, 6.044166
1698.000000, 5.980939
1699.000000, 5.864715
1700.000000, 5.755324
1701.000000, 5.742413
1702.000000, 5.783123
1703.000000, 5.831838
1704.000000, 5.838230
1705.000000, 5.834109
1706.000000, 5.845210
1707.000000, 5.882837
1708.000000, 5.926953
1709.000000, 5.961754
1710.000000, 6.010721
1711.000000, 6.076984
1712.000000, 6.131563
1713.000000, 6.081129
1714.000000, 5.960442
1715.000000, 5.836332
1716.000000, 5.804722
1717.000000, 5.813468
1718.000000, 5.825253
1719.000000, 5.848884
1720.000000, 5.881890
1721.000000, 5.916883
1722.000000, 5.922551
1723.000000, 5.927318
1724.000000, 5.957177
1725.000000, 6.019927
1726.000000, 6.095588
1727.000000, 6.142511
1728.000000, 6.069300
1729.000000, 5.952590
1730.000000, 5.850781
1731.000000, 5.830369
1732.000000, 5.826739
1733.000000, 5.822092
1734.000000, 5.823366
1735.000000, 5.821395
1736.000000, 5.829540
1737.000000, 5.857814
1738.000000, 5.891384
1739.000000, 5.934142
1740.000000, 5.974007
1741.000000, 6.026432
1742.000000, 6.071387
1743.000000, 6.130571
1744.000000, 6.159009
1745.000000, 6.076749
1746.000000, 5.966207
1747.000000, 5.867769
1748.000000, 5.849113
1749.000000, 5.839028
1750.000000, 5.850237
1751.000000, 5.870860
1752.000000, 5.885507
1753.000000, 5.903678
1754.000000, 5.932238
1755.000000, 5.967112
1756.000000, 5.978142
1757.000000, 6.019206
1758.000000, 6.058118
1759.000000, 6.121691
1760.000000, 6.153398
1761.000000, 6.085830
1762.000000, 5.976506
1763.000000, 5.861733
1764.000000, 5.850264
1765.000000, 5.859329
1766.000000, 5.869613
1767.000000, 5.870757
1768.000000, 5.875048
1769.000000, 5.870841
1770.000000, 5.841902
1771.000000, 5.815794
1772.000000, 5.813528
1773.000000, 5.818170
1774.000000, 5.803786
1775.000000, 5.785616
1776.000000, 5.851675
1777.000000, 5.955167
1778.000000, 6.052919
1779.000000, 6.128698
1780.000000, 6.210805
1781.000000, 6.260787
1782.000000, 6.233463
1783.000000, 6.174369
1784.000000, 6.186355
1785.000000, 6.216296
1786.000000, 6.225886
1787.000000, 6.159107
1788.000000, 6.091637
1789.000000, 6.083975
1790.000000, 6.107508
1791.000000, 6.165713
1792.000000, 6.208082
1793.000000, 6.261447
1794.000000, 6.351876
1795.000000, 6.404412
1796.000000, 6.321307
1797.000000, 6.129841
1798.000000, 6.008113
1799.000000, 6.074006
1800.000000, 6.206510
1801.000000, 6.229933
1802.000000, 6.130791
1803.000000, 6.072090
1804.000000, 6.138407
1805.000000, 6.300763
1806.000000, 6.376957
1807.000000, 6.288123
1808.000000, 6.135004
1809.000000, 6.076507
1810.000000, 6.045503
1811.000000, 6.112669
1812.000000, 6.187240
1813.000000, 6.467456
1814.000000, 6.692620
1815.000000, 6.547873
1816.000000, 5.965057
1817.000000, 5.353456
1818.000000, 5.272392
1819.000000, 5.972527
1820.000000, 6.896521
1821.000000, 7.377371
1822.000000, 7.056392
1823.000000, 6.395035
1824.000000, 5.919410
1825.000000, 5.745856
1826.000000, 5.767645
1827.000000, 5.963691
1828.000000, 6.392173
1829.000000, 6.919198
1830.000000, 7.074477
1831.000000, 6.781631
1832.000000, 6.177315
1833.000000, 5.841419
1834.000000, 5.803658
1835.000000, 5.825114
1836.000000, 5.617703
1837.000000, 5.384675
1838.000000, 5.613151
1839.000000, 6.698507
1840.000000, 8.076954
1841.000000, 8.580228
1842.000000, 7.630428
1843.000000, 5.855296
1844.000000, 4.693392
1845.000000, 4.939308
1846.000000, 6.279538
1847.000000, 7.509699
1848.000000, 7.776859
1849.000000, 7.054958
1850.000000, 6.227031
1851.000000, 5.894915
1852.000000, 6.266422
1853.000000, 6.729611
1854.000000, 6.834459
1855.000000, 6.457796
1856.000000, 5.996823
1857.000000, 5.910064
1858.000000, 6.309286
1859.000000, 7.051009
1860.000000, 7.727315
1861.000000, 7.964988
1862.000000, 7.680316
1863.000000, 7.104440
1864.000000, 6.455475
1865.000000, 5.988195
1866.000000, 5.655071
1867.000000, 5.433614
1868.000000, 5.442551
1869.000000, 5.558061
1870.000000, 5.757216
1871.000000, 6.062705
1872.000000, 6.389714
1873.000000, 6.735133
1874.000000, 7.025669
1875.000000, 7.407321
1876.000000, 7.742400
1877.000000, 7.689122
1878.000000, 7.201386
1879.000000, 6.659323
1880.000000, 6.406324
1881.000000, 6.562491
1882.000000, 6.875586
1883.000000, 7.098325
1884.000000, 7.174144
1885.000000, 7.077436
1886.000000, 6.746363
1887.000000, 6.388250
1888.000000, 6.187952
1889.000000, 6.356710
1890.000000, 6.874247
1891.000000, 7.490153
1892.000000, 7.840867
1893.000000, 7.626561
1894.000000, 6.948821
1895.000000, 6.281367
1896.000000, 5.990446
1897.000000, 6.286406
1898.000000, 6.850187
1899.000000, 7.211560
1900.000000, 7.095630
1901.000000, 6.651305
1902.000000, 6.227044
1903.000000, 6.212831
1904.000000, 6.815016
1905.000000, 7.670198
1906.000000, 8.197006
1907.000000, 7.910701
1908.000000, 7.166745
1909.000000, 6.482397
1910.000000, 6.346066
1911.000000, 6.628564
1912.000000, 7.238636
1913.000000, 7.712297
1914.000000, 7.810769
1915.000000, 7.330900
1916.000000, 6.587158
1917.000000, 6.087008
1918.000000, 6.086115
1919.000000, 6.562554
1920.000000, 7.102812
1921.000000, 7.411382
1922.000000, 7.359013
1923.000000, 7.132637
1924.000000, 6.930212
1925.000000, 6.867897
1926.000000, 6.986788
1927.000000, 7.179062
1928.000000, 7.338667
1929.000000, 7.375768
1930.000000, 7.312314
1931.000000, 7.280886
1932.000000, 7.267467
1933.000000, 7.244774
1934.000000, 7.239782
1935.000000, 7.198940
1936.000000, 7.175238
1937.000000, 7.215156
1938.000000, 7.376386
1939.000000, 7.591984
1940.000000, 7.626941
1941.000000, 7.496982
1942.000000, 7.379536
1943.000000, 7.317476
1944.000000, 7.386159
1945.000000, 7.460877
1946.000000, 7.537731
1947.000000, 7.516744
1948.000000, 7.478895
1949.000000, 7.473925
1950.000000, 7.450454
1951.000000, 7.411384
1952.000000, 7.450812
1953.000000, 7.559228
1954.000000, 7.567490
1955.000000, 7.482749
1956.000000, 7.509200
1957.000000, 7.664022
1958.000000, 7.748542
1959.000000, 7.660773
1960.000000, 7.558136
1961.000000, 7.590241
1962.000000, 7.654869
1963.000000, 7.722121
1964.000000, 7.684275
1965.000000, 7.718794
1966.000000, 7.768165
1967.000000, 7.816305
1968.000000, 7.775741
1969.000000, 7.689907
1970.000000, 7.716144
1971.000000, 7.896682
1972.000000, 8.029580
1973.000000, 8.068599
1974.000000, 7.982003
1975.000000, 7.955693
1976.000000, 7.953926
1977.000000, 7.945541
1978.000000, 7.933692
1979.000000, 7.903308
1980.000000, 7.888886
1981.000000, 7.877198
1982.000000, 7.888812
1983.000000, 7.905900
1984.000000, 7.922999
1985.000000, 7.958119
1986.000000, 8.017217
1987.000000, 8.094943
1988.000000, 8.171742
1989.000000, 8.236770
1990.000000, 8.205346
1991.000000, 8.096539
1992.000000, 7.989816
1993.000000, 7.988792
1994.000000, 8.069595
1995.000000, 8.177986
1996.000000, 8.246271
1997.000000, 8.286807
1998.000000, 8.249851
1999.000000, 8.178331
2000.065834, 8.122438
2009.942668, 8.157853
2020.098566, 8.277675
2029.969298, 8.417622
2039.837000, 8.502878
2049.983460, 8.607027
2059.844971, 8.735158
2069.985031, 8.941066
2079.840289, 9.104181
2089.973887, 9.242553
2099.822832, 9.340068
2109.949906, 9.487164
2119.792477, 9.697256
2129.912964, 9.915423
2140.030088, 10.132633
2149.862941, 10.279156
2159.973384, 10.425032
2169.799712, 10.569129
2179.903413, 10.734605
2190.003671, 10.894752
2199.820052, 11.047849
2209.913475, 11.203352
2219.723179, 11.394528
2229.809704, 11.564589
2239.892708, 11.753132
2249.692237, 11.950924
2259.768250, 12.193210
2269.840694, 12.455686
2279.909553, 12.693514
2289.695271, 12.932312
2299.757015, 13.141688
2309.815127, 13.354411
2319.869592, 13.555128
2329.641254, 13.770835
2339.688478, 14.009631
2349.732008, 14.200325
2359.771828, 14.329296
2369.807920, 14.411830
2379.840271, 14.544595
2389.590342, 14.714621
2399.615266, 14.881128
2409.636400, 15.020463
2419.653730, 15.168350
2429.667238, 15.316975
2439.676909, 15.473584
2449.682728, 15.628166
2459.684679, 15.810441
2469.682745, 15.976736
2479.676911, 16.154325
2489.667162, 16.285123
2499.653481, 16.427604
2509.635853, 16.494106
2519.614261, 16.573542
2529.588691, 16.669077
2539.559127, 16.851798
2549.525552, 17.082179
2559.487951, 17.289043
2569.722871, 17.428212
2579.677058, 17.517405
2589.627171, 17.595214
2599.573195, 17.707273
2609.515113, 17.801512
2619.452911, 17.876615
2629.662448, 17.975380
2639.591842, 18.137510
2649.517067, 18.343276
2659.438109, 18.441426
2669.630358, 18.422936
2679.542867, 18.290635
2689.451145, 18.090098
2699.630227, 17.689252
2709.529877, 16.857484
2719.425248, 15.339223
2729.591015, 13.038857
2739.477662, 10.258324
2749.359982, 7.538385
2759.512287, 5.326913
2769.385788, 3.726998
2779.528995, 2.594799
2789.393611, 1.846496
2799.527654, 1.418073
2809.383323, 1.247110
2819.508136, 1.184862
2829.354792, 1.111898
2839.470310, 1.072081
2849.307890, 1.074372
2859.414046, 1.139433
2869.515434, 1.164306
2879.339216, 1.173200
2889.431143, 1.219834
2899.245690, 1.310522
2909.328092, 1.423778
2919.405640, 1.483384
2929.206149, 1.505102
2939.274073, 1.501877
2949.337095, 1.515390
2959.395197, 1.569394
2969.176720, 1.681190
2979.225066, 1.857811
2989.268442, 2.022403
2999.306833, 2.150268
3009.340220, 2.203351
3019.368587, 2.289234
3029.391918, 2.415574
3039.139497, 2.570114
3049.152842, 2.737880
3059.161100, 2.850281
3069.164256, 2.959961
3079.162292, 3.029689
3089.155191, 3.109636
3099.142938, 3.213226
3109.125515, 3.294702
3119.102905, 3.404791
3129.075093, 3.490996
3139.311366, 3.659490
3149.272956, 3.847801
3159.229293, 4.140375
3169.180360, 4.406952
3179.126141, 4.641708
3189.066618, 4.772708
3199.270220, 4.892372
3209.199897, 5.085239
3219.124221, 5.294068
3229.043176, 5.487787
3239.224603, 5.580773
3249.132622, 5.676968
3259.035221, 5.769384
3269.199799, 5.877958
3279.091361, 5.938772
3288.977454, 6.011911
3299.125027, 6.061039
3308.999981, 6.119903
3319.136081, 6.106648
3328.999829, 6.087532
3339.124385, 5.997880
3348.976861, 5.898121
3359.089804, 5.739579
3368.930939, 5.561279
3379.032200, 5.270667
3389.127517, 4.907783
3398.951437, 4.461524
3409.034967, 4.066491
3419.112499, 3.680341
3428.919052, 3.367948
3438.984693, 3.005732
3449.044284, 2.604740
3458.833318, 2.153249
3468.880914, 1.790159
3478.922407, 1.561481
3488.957779, 1.428428
3498.987012, 1.302576
3509.010089, 1.139559
3519.026992, 0.992295
3529.037703, 0.841340
3538.779008, 0.750784
3548.777448, 0.646750
3558.769643, 0.555369
3568.755577, 0.427898
3578.997769, 0.286514
3588.970961, 0.286514
3598.937838, 0.226777
3608.898383, 0.176143
3618.852578, 0.140676
3628.800407, 0.118177
3638.741850, 0.110479
3648.938253, 0.126398
3658.866705, 0.152226
3668.788719, 0.176996
3678.704279, 0.187488
3688.874043, 0.190003
3698.776469, 0.193327
3708.672387, 0.197824
3718.821938, 0.209027
3728.704616, 0.220500
3738.840542, 0.232374
3748.709907, 0.240337
3758.832135, 0.245674
3768.688117, 0.246783
3778.796573, 0.246257
3788.639101, 0.247429
3798.733711, 0.254631
3808.821282, 0.262335
3818.643407, 0.272361
3828.717023, 0.288785
3838.783543, 0.312955
3848.585104, 0.338115
3858.637559, 0.355302
3868.682864, 0.368339
3878.720999, 0.381998
3888.751945, 0.399340
3898.518755, 0.414481
3908.535455, 0.425304
3918.544910, 0.432832
3928.547104, 0.439880
3938.542016, 0.446066
3948.529630, 0.452192
3958.509925, 0.460494
3968.482884, 0.470603
3978.703920, 0.477931
3988.661962, 0.478622
3998.612612, 0.473298
4008.555852, 0.467134
4018.491662, 0.462994
4028.674500, 0.460481
4038.595205, 0.456313
4048.508426, 0.449845
4058.414143, 0.444234
4068.566040, 0.442162
4078.456503, 0.443401
4088.592715, 0.442526
4098.467848, 0.438217
4108.588299, 0.430552
4118.448027, 0.424996
4128.552639, 0.420829
4138.396887, 0.417918
4148.485584, 0.415974
4158.566193, 0.417846
4168.386981, 0.423681
4178.451560, 0.428633
4188.507992, 0.429044
4198.305151, 0.426072
4208.345437, 0.423001
4218.377519, 0.420238
4228.401377, 0.417657
4238.416991, 0.413872
4248.424343, 0.411613
4258.423411, 0.410950
4268.414178, 0.415459
4278.396623, 0.424581
4288.370728, 0.437463
4298.336471, 0.446836
4308.293836, 0.450777
4318.242800, 0.448955
4328.431752, 0.447405
4338.363649, 0.447877
4348.287088, 0.448828
4358.202050, 0.448116
4368.356068, 0.444887
4378.253805, 0.440713
4388.390126, 0.436560
4398.270558, 0.433020
4408.389101, 0.431272
4418.252149, 0.430080
4428.352834, 0.428116
4438.198419, 0.424313
4448.281165, 0.420057
4458.354799, 0.416834
4468.173935, 0.413806
4478.229508, 0.410657
4488.275909, 0.406823
4498.313117, 0.403587
4508.096635, 0.401434
4518.115621, 0.399876
4528.125352, 0.397923
4538.125809, 0.395332
4548.116970, 0.392114
4558.098816, 0.389270
4568.071325, 0.386993
4578.277365, 0.385216
4588.230912, 0.383563
4598.175061, 0.381651
4608.109792, 0.380004
4618.035085, 0.378086
4628.192649, 0.375852
4638.098772, 0.373111
4647.995395, 0.370184
4658.123528, 0.367060
4668.000857, 0.364081
4678.109183, 0.361490
4687.967136, 0.358911
4698.055570, 0.356270
4708.133906, 0.354254
4717.962521, 0.352453
4728.020838, 0.350601
4738.068993, 0.348011
4748.106964, 0.345266
4758.134730, 0.342934
4767.913874, 0.340402
4777.921408, 0.337803
4787.918673, 0.335304
4797.905646, 0.332844
4807.882307, 0.330425
4818.085802, 0.328047
4828.041526, 0.325706
4837.986874, 0.323401
4847.921823, 0.321131
4857.846351, 0.318896
4867.996361, 0.316697
4877.899737, 0.314532
4888.028045, 0.312400
4897.910179, 0.310300
4908.016697, 0.308232
4917.877504, 0.306193
4927.962141, 0.304184
4937.801534, 0.302203
4947.864203, 0.300250
4957.915724, 0.298324
4967.956075, 0.296427
4977.985234, 0.294559
4987.770330, 0.292719
4997.777298, 0.290907
5007.776688, 0.289119
5017.595804, 0.287357
5028.169082, 0.285617
5037.986050, 0.283902
5047.801980, 0.282208
5057.616872, 0.280534
5068.185590, 0.278882
5077.998316, 0.277251
5087.809996, 0.275642
5097.620628, 0.274054
5107.430211, 0.272487
5117.993201, 0.270939
5127.800597, 0.269409
5137.606938, 0.267896
5147.412220, 0.266401
5157.970569, 0.264924
5167.773648, 0.263466
5177.575662, 0.262028
5187.376611, 0.260609
5197.930283, 0.259207
5207.729011, 0.257823
5217.526666, 0.256455
5227.323247, 0.255103
5237.872207, 0.253765
5247.666549, 0.252445
5257.459812, 0.251141
5268.005191, 0.249855
5277.796202, 0.248586
5287.586127, 0.247332
5297.374963, 0.246093
5307.915566, 0.244869
5317.702134, 0.243661
5327.487607, 0.242467
5337.271982, 0.241287
5347.807773, 0.240122
5357.589864, 0.238970
5367.370852, 0.237832
5377.902987, 0.236707
5387.681677, 0.235596
5397.459258, 0.234497
5407.235727, 0.233412
5417.762987, 0.232339
5427.537141, 0.231278
5437.310177, 0.230228
5447.833734, 0.229188
5457.604442, 0.228156
5467.374028, 0.227134
5477.142487, 0.226123
5487.661104, 0.225122
5497.427219, 0.224132
5507.192201, 0.223153
5517.707068, 0.222183
5527.469693, 0.221222
5537.231179, 0.220272
5547.742274, 0.219333
5557.501390, 0.218403
5567.259362, 0.217484
5577.766665, 0.216573
5587.522253, 0.215671
5597.276691, 0.214778
5607.780182, 0.213890
5617.532223, 0.213009
5627.283108, 0.212134
5637.032835, 0.211269
5647.531242, 0.210412
5657.278555, 0.209562
5667.024703, 0.208719
5677.519250, 0.207882
5687.262972, 0.207054
5697.005523, 0.206235
5707.496189, 0.205423
5717.236302, 0.204620
5726.975237, 0.203824
5737.462002, 0.203034
5747.198485, 0.202252
5757.682605, 0.201478
5767.416629, 0.200712
5777.149464, 0.199951
5787.629649, 0.199199
5797.360012, 0.198455
5807.089180, 0.197721
5817.565409, 0.196994
5827.292092, 0.196274
5837.017575, 0.195563
5847.489828, 0.194862
5857.212813, 0.194168
5866.934591, 0.193480
5877.402847, 0.192797
5887.122114, 0.192120
5897.587661, 0.191449
5907.304408, 0.190782
5917.019938, 0.190120
5927.481454, 0.189462
5937.194452, 0.188809
5946.906226, 0.188160
5957.363691, 0.187516
5967.072921, 0.186879
5977.527640, 0.186249
5987.234315, 0.185625
5996.939757, 0.185004
6007.390390, 0.184386
6017.093265, 0.183774
6026.794901, 0.183168
6037.241429, 0.182566
6046.940485, 0.181970
6057.384230, 0.181379
6067.080698, 0.180793
6076.775917, 0.180212
6087.215522, 0.179635
6096.908139, 0.179062
6107.344938, 0.178494
6117.034946, 0.177931
6126.723694, 0.177372
6137.156319, 0.176818
6146.842444, 0.176267
6157.272241, 0.175722
6166.955735, 0.175180
6177.382693, 0.174642
6187.063548, 0.174106
6196.743128, 0.173574
6207.165865, 0.173045
6216.842793, 0.172519
6227.262668, 0.171997
6236.936935, 0.171478
6246.609918, 0.170964
6257.025537, 0.170453
6266.695846, 0.169946
6277.108582, 0.169442
6286.776208, 0.168942
6297.186050, 0.168445
6306.850986, 0.167952
6317.257926, 0.167463
6326.920162, 0.166978
6336.581095, 0.166497
6346.983717, 0.166019
6356.641938, 0.165542
6367.041635, 0.165067
6376.697135, 0.164594
6387.093897, 0.164126
6396.746668, 0.163660
6407.140486, 0.163198
6416.790518, 0.162740
6427.181383, 0.162287
6436.828669, 0.161838
6446.474630, 0.161393
6456.861103, 0.160950
6466.504304, 0.160509
6476.887800, 0.160070
6486.528234, 0.159636
6496.908745, 0.159204
6506.546402, 0.158775
6516.923919, 0.158351
6526.558791, 0.157932
6536.933304, 0.157517
6546.565382, 0.157105
6556.936882, 0.156696
6566.566159, 0.156288
6576.934637, 0.155883
6586.561102, 0.155477
6596.926549, 0.155074
6606.550195, 0.154672
6616.912601, 0.154270
6626.533420, 0.153868
6636.892776, 0.153467
6646.510758, 0.153069
6656.867055, 0.152673
6666.482193, 0.152278
6676.835422, 0.151882
6686.447706, 0.151488
6696.797857, 0.151098
6706.407280, 0.150710
6716.754344, 0.150323
6726.360896, 0.149938
6736.704865, 0.149555
6746.308538, 0.149175
6756.649402, 0.148799
6766.250188, 0.148424
6776.587937, 0.148052
6786.924068, 0.147681
6796.520453, 0.147311
6806.853456, 0.146942
6816.446931, 0.146576
6826.776797, 0.146212
6836.367355, 0.145849
6846.694074, 0.145486
6856.281707, 0.145124
6866.605270, 0.144764
6876.189968, 0.144404
6886.510366, 0.144047
6896.829120, 0.143692
6906.409345, 0.143338
6916.724921, 0.142984
6926.302190, 0.142631
6936.614577, 0.142279
6946.188882, 0.141928
6956.498072, 0.141578
6966.805601, 0.141230
6976.375388, 0.140885
6986.679706, 0.140543
6996.246507, 0.140204
7006.547605, 0.139868
7016.111412, 0.139534
7026.409280, 0.139202
7036.705470, 0.138872
7046.264714, 0.138544
7056.557661, 0.138218
7066.113889, 0.137894
7076.403584, 0.137571
7086.691589, 0.137249
7096.243221, 0.136928
7106.527959, 0.136607
7116.076554, 0.136287
7126.358018, 0.135970
7136.637779, 0.135653
7146.181746, 0.135339
7156.458218, 0.135027
7165.999126, 0.134717
7176.272300, 0.134410
7186.543760, 0.134106
7196.080008, 0.133807
7206.348156, 0.133510
7216.614582, 0.133216
7226.146150, 0.132925
7236.409251, 0.132636
7245.937725, 0.132349
7256.197491, 0.132064
7266.455524, 0.131780
7275.979286, 0.131497
7286.233970, 0.131215
7296.486914, 0.130935
7306.005944, 0.130658
7316.255525, 0.130382
7326.503358, 0.130108
7336.017637, 0.129835
7346.262094, 0.129562
7356.504797, 0.129291
7366.014304, 0.129020
7376.253616, 0.128752
7386.491167, 0.128485
7395.995884, 0.128220
7406.230030, 0.127955
7416.462408, 0.127692
7425.962315, 0.127430
7436.191274, 0.127170
7446.418458, 0.126911
7455.913536, 0.126654
7466.137287, 0.126397
7476.359256, 0.126140
7485.849485, 0.125884
7496.068008, 0.125630
7506.284741, 0.125376
7515.770101, 0.125124
7525.983375, 0.124873
7536.194850, 0.124623
7545.675324, 0.124374
7555.883326, 0.124126
7566.089524, 0.123879
7576.293916, 0.123633
7585.767802, 0.123389
7595.968701, 0.123147
7606.167786, 0.122908
7615.636739, 0.122669
7625.832319, 0.122431
7636.026078, 0.122193
7646.218013, 0.121956
7655.680318, 0.121719
7665.868729, 0.121483
7676.055310, 0.121247
7686.240057, 0.121012
7695.695679, 0.120779
7705.876884, 0.120548
7716.056248, 0.120319
7726.233770, 0.120090
7735.682674, 0.119862
7745.856636, 0.119636
7756.028747, 0.119410
7766.199006, 0.119184
7775.641157, 0.118960
7785.807837, 0.118735
7795.972657, 0.118512
7806.135616, 0.118289
7815.570980, 0.118069
7825.730341, 0.117849
7835.887833, 0.117630
7846.043454, 0.117412
7855.471995, 0.117197
7865.624000, 0.116983
7875.774127, 0.116771
7885.922372, 0.116560
7896.068734, 0.116350
7905.488668, 0.116140
7915.631391, 0.115932
7925.772224, 0.115724
7935.911164, 0.115517
7946.048209, 0.115311
7955.459480, 0.115106
7965.592863, 0.114902
7975.724343, 0.114700
7985.853919, 0.114499
7995.981587, 0.114299
8005.384141, 0.114099
8015.508125, 0.113900
8025.630194, 0.113702
8035.750346, 0.113504
8045.868580, 0.113308
8055.984892, 0.113111
8065.376887, 0.112915
8075.489487, 0.112719
8085.600158, 0.112525
8095.708897, 0.112330
8105.815704, 0.112138
8115.920574, 0.111946
8125.301933, 0.111756
8135.403063, 0.111566
8145.502251, 0.111377
8155.599493, 0.111187
8165.694787, 0.110998
8175.788131, 0.110810
8185.879523, 0.110621
8195.248351, 0.110433
8205.335970, 0.110246
8215.421630, 0.110059
8225.505327, 0.109873
8235.587061, 0.109688
8245.666827, 0.109503
8255.744624, 0.109318
8265.820450, 0.109133
8275.174806, 0.108948
8285.246822, 0.108764
8295.316860, 0.108581
8305.384917, 0.108399
8315.450990, 0.108217
8325.515077, 0.108037
8335.577176, 0.107858
8345.637284, 0.107679
8355.695399, 0.107500
8365.751519, 0.107322
8375.087555, 0.107145
8385.139819, 0.106968
8395.190081, 0.106792
8405.238338, 0.106618
8415.284587, 0.106444
8425.328827, 0.106271
8435.371055, 0.106098
8445.411268, 0.105925
8455.449464, 0.105751
8465.485641, 0.105579
8475.519796, 0.105407
8485.551927, 0.105236
8495.582031, 0.105066
8505.610107, 0.104897
8515.636151, 0.104729
8525.660162, 0.104561
8535.682136, 0.104395
8544.986430, 0.104229
8555.004471, 0.104065
8565.020468, 0.103901
8575.034421, 0.103738
8585.046325, 0.103577
8595.056179, 0.103416
8605.063981, 0.103256
8615.069727, 0.103097
8625.073416, 0.102939
8635.075045, 0.102781
8645.074612, 0.102624
8655.072114, 0.102467
8665.067549, 0.102312
8675.060915, 0.102157
8685.052209, 0.102003
8695.041429, 0.101850
8705.028573, 0.101698
8715.013637, 0.101548
8724.996620, 0.101398
8734.977519, 0.101250
8744.956333, 0.101104
8754.933058, 0.100958
8764.907692, 0.100813
8774.880232, 0.100668
8784.850677, 0.100525
8794.819025, 0.100385
8804.785271, 0.100246
8815.461059, 0.100109
8825.422948, 0.099973
8835.382728, 0.099839
8845.340399, 0.099704
8855.295957, 0.099570
8865.249401, 0.099436
8875.200727, 0.099302
8885.149933, 0.099168
8895.097018, 0.099034
8905.041978, 0.098901
8914.984812, 0.098769
8924.925517, 0.098638
8934.864090, 0.098508
8944.800529, 0.098377
8954.734832, 0.098246
8965.376355, 0.098115
8975.306225, 0.097986
8985.233952, 0.097858
8995.159534, 0.097730
9005.082967, 0.097603
9015.004249, 0.097475
9024.923378, 0.097348
9034.840353, 0.097221
9044.755169, 0.097095
9054.667825, 0.096970
9065.286129, 0.096845
9075.194303, 0.096722
9085.100310, 0.096600
9095.004147, 0.096478
9104.905813, 0.096358
9114.805303, 0.096238
9124.702617, 0.096119
9134.597752, 0.096001
9145.197262, 0.095882
9155.087875, 0.095765
9164.976302, 0.095648
9174.862540, 0.095533
9184.746587, 0.095418
9194.628441, 0.095304
9204.508098, 0.095191
9215.091006, 0.095079
9224.966108, 0.094967
9234.839006, 0.094855
9244.709699, 0.094743
9254.578185, 0.094629
9265.149109, 0.094516
9275.013013, 0.094403
9284.874702, 0.094291
9294.734174, 0.094180
9304.591426, 0.094068
9314.446456, 0.093956
9325.002949, 0.093844
9334.853368, 0.093734
9344.701558, 0.093624
9354.547517, 0.093516
9364.391241, 0.093408
9374.935607, 0.093301
9384.774696, 0.093194
9394.611544, 0.093087
9404.446148, 0.092981
9414.980732, 0.092875
9424.810682, 0.092769
9434.638380, 0.092663
9444.463825, 0.092557
9454.988585, 0.092451
9464.809356, 0.092345
9474.627866, 0.092239
9484.444114, 0.092133
9494.959008, 0.092028
9504.770561, 0.091923
9514.579844, 0.091818
9524.386855, 0.091713
9534.891842, 0.091609
9544.694139, 0.091506
9554.494156, 0.091404
9564.291891, 0.091302
9574.786929, 0.091201
9584.579930, 0.091101
9594.370643, 0.091001
9604.858149, 0.090901
9614.644112, 0.090800
9624.427779, 0.090701
9634.209147, 0.090601
9644.686632, 0.090502
9654.463232, 0.090403
9664.237526, 0.090304
9674.707423, 0.090205
9684.476934, 0.090107
9694.244132, 0.090009
9704.706417, 0.089911
9714.468817, 0.089813
9724.228897, 0.089715
9734.683548, 0.089618
9744.438814, 0.089522
9754.191753, 0.089427
9764.638746, 0.089334
9774.386857, 0.089241
9784.132634, 0.089149
9794.571945, 0.089057
9804.312879, 0.088965
9814.746996, 0.088873
9824.483078, 0.088781
9834.216813, 0.088688
9844.643209, 0.088597
9854.372076, 0.088505
9864.098590, 0.088415
9874.517241, 0.088325
9884.238873, 0.088238
9894.652288, 0.088151
9904.369027, 0.088064
9914.083402, 0.087978
9924.489032, 0.087893
9934.198499, 0.087808
9944.598867, 0.087724
9954.303417, 0.087640
9964.005590, 0.087557
9974.398135, 0.087475
9984.095376, 0.087392
9994.482631, 0.087310
10004.174930, 0.087228
10014.556890, 0.087146
10024.244230, 0.087065
10033.929190, 0.086984
10044.303260, 0.086903
10053.983250, 0.086823
10064.352000, 0.086743
10074.027010, 0.086664
10084.390430, 0.086584
10094.060450, 0.086505
10104.418520, 0.086425
10114.083550, 0.086345
10124.436250, 0.086266
10134.096280, 0.086187
10144.443620, 0.086109
10154.098620, 0.086032
10164.440580, 0.085954
10174.090560, 0.085877
10184.427130, 0.085799
10194.072080, 0.085721
10204.403250, 0.085643
10214.043150, 0.085565
10224.368910, 0.085487
10234.003750, 0.085409
10244.324090, 0.085332
10253.953860, 0.085256
10264.268770, 0.085181
10273.893470, 0.085106
10284.202930, 0.085031
10293.822550, 0.084956
10304.126560, 0.084882
10313.741080, 0.084808
10324.039630, 0.084735
10334.335340, 0.084662
10343.942110, 0.084590
10354.232340, 0.084519
10363.834000, 0.084450
10374.118740, 0.084381
10383.715270, 0.084313
10393.994510, 0.084245
10404.270900, 0.084176
10413.859620, 0.084107
10424.130500, 0.084039
10433.714070, 0.083971
10443.979410, 0.083903
10454.241900, 0.083835
10463.817630, 0.083766
10474.074570, 0.083697
10483.645120, 0.083628
10493.896500, 0.083560
10504.145010, 0.083492
10513.707690, 0.083423
10523.950630, 0.083356
10534.190680, 0.083289
10543.745450, 0.083222
10553.979920, 0.083156
10564.211490, 0.083089
10573.758350, 0.083023
10583.984320, 0.082957
10593.525940, 0.082891
10603.746300, 0.082825
10613.963750, 0.082759
10624.178290, 0.082694
10633.709240, 0.082629
10643.918150, 0.082567
10654.124140, 0.082506
10663.647090, 0.082445
10673.847430, 0.082383
10684.044850, 0.082322
10693.559790, 0.082260
10703.751540, 0.082198
10713.940350, 0.082136
10723.447260, 0.082073
10733.630400, 0.082011
10743.810590, 0.081949
10753.987830, 0.081888
10763.483930, 0.081827
10773.655480, 0.081767
10783.824070, 0.081707
10793.989700, 0.081649
10803.474950, 0.081591
10813.634860, 0.081534
10823.791800, 0.081478
10833.945780, 0.081423
10843.420140, 0.081368
10853.568380, 0.081314
10863.713630, 0.081261
10873.855910, 0.081208
10883.319350, 0.081156
10893.455860, 0.081104
10903.589380, 0.081053
10913.719920, 0.081001
10923.847460, 0.080951
10933.297140, 0.080900
10943.418890, 0.080849
10953.537640, 0.080798
10963.653390, 0.080746
10973.766130, 0.080695
10983.875860, 0.080643
10993.308900, 0.080591
11003.412810, 0.080539
11013.513700, 0.080488
11023.611570, 0.080438
11033.706420, 0.080388
11043.798250, 0.080340
11053.214560, 0.080293
11063.300530, 0.080245
11073.383460, 0.080198
11083.463370, 0.080150
11093.540230, 0.080103
11103.614050, 0.080057
11113.684830, 0.080013
11123.752560, 0.079969
11133.146350, 0.079925
11143.208190, 0.079880
11153.266960, 0.079834
11163.322680, 0.079789
11173.375340, 0.079745
11183.424940, 0.079703
11193.471470, 0.079662
11203.514930, 0.079621
11213.555320, 0.079580
11223.592630, 0.079539
11233.626870, 0.079499
11243.658030, 0.079459
11253.686100, 0.079419
11263.711090, 0.079378
11273.064960, 0.079337
11283.083980, 0.079298
11293.099910, 0.079258
11303.112740, 0.079219
11313.122470, 0.079178
11323.129090, 0.079137
11333.132620, 0.079095
11343.133030, 0.079053
11353.130340, 0.079012
11363.124530, 0.078971
11373.115610, 0.078930
11383.103580, 0.078890
11393.088420, 0.078849
11403.070130, 0.078809
11413.048720, 0.078770
11423.024180, 0.078731
11432.996510, 0.078692
11442.965710, 0.078653
11452.931770, 0.078614
11463.558770, 0.078575
11473.518340, 0.078536
11483.474760, 0.078499
11493.428030, 0.078462
11503.378150, 0.078426
11513.325120, 0.078390
11523.268930, 0.078356
11533.209580, 0.078322
11543.147070, 0.078287
11553.081400, 0.078252
11563.012560, 0.078217
11572.940550, 0.078183
11582.865360, 0.078148
11593.448330, 0.078112
11603.366580, 0.078077
11613.281650, 0.078043
11623.193530, 0.078008
11633.102230, 0.077974
11643.007740, 0.077938
11652.910060, 0.077902
11662.809180, 0.077865
11673.364720, 0.077828
11683.257230, 0.077792
11693.146540, 0.077756
11703.032640, 0.077722
11712.915540, 0.077688
11722.795220, 0.077654
11733.330010, 0.077621
11743.203040, 0.077588
11753.072860, 0.077555
11762.939460, 0.077522
11772.802830, 0.077491
11783.320200, 0.077461
11793.176900, 0.077434
11803.030360, 0.077408
11812.880590, 0.077382
11822.727580, 0.077356
11833.227470, 0.077330
11843.067760, 0.077302
11852.904800, 0.077274
11862.738590, 0.077247
11873.224390, 0.077220
11883.051450, 0.077193
11892.875260, 0.077166
11902.695810, 0.077138
11913.167470, 0.077111
11922.981270, 0.077085
11932.791810, 0.077058
11942.599070, 0.077031
11953.056540, 0.077003
11962.857040, 0.076975
11972.654250, 0.076947
11983.100990, 0.076918
11992.891420, 0.076889
12002.678560, 0.076860
12013.114550, 0.076830
12022.894880, 0.076800
12032.671920, 0.076768
12043.097130, 0.076738
12052.867350, 0.076707
12062.634260, 0.076676
12073.048660, 0.076647
12082.808740, 0.076618
12092.565500, 0.076591
12102.969060, 0.076564
12112.718970, 0.076537
12122.465560, 0.076510
12132.858260, 0.076485
12142.597980, 0.076460
12152.983340, 0.076435
12162.716180, 0.076411
12172.445680, 0.076385
12182.820130, 0.076358
12192.542730, 0.076331
12202.909820, 0.076302
12212.625510, 0.076273
12222.985230, 0.076245
12232.693990, 0.076219
12242.399410, 0.076192
12252.748150, 0.076164
12262.446620, 0.076135
12272.787960, 0.076105
12282.479480, 0.076076
12292.813390, 0.076048
12302.497960, 0.076021
12312.824440, 0.075996
12322.502030, 0.075973
12332.821060, 0.075953
12342.491670, 0.075932
12352.803250, 0.075913
12362.466860, 0.075892
12372.770970, 0.075871
12382.427570, 0.075850
12392.724200, 0.075829
12402.373780, 0.075809
12412.662920, 0.075787
12422.305470, 0.075767
12432.587110, 0.075748
12442.222620, 0.075731
12452.496730, 0.075714
12462.766970, 0.075698
12472.391780, 0.075681
12482.654480, 0.075663
12492.272220, 0.075645
12502.527380, 0.075626
12512.778630, 0.075605
12522.385630, 0.075585
12532.629320, 0.075564
12542.229220, 0.075545
12552.465330, 0.075526
12562.697530, 0.075508
12572.286650, 0.075490
12582.511250, 0.075473
12592.731920, 0.075456
12602.310240, 0.075440
12612.523300, 0.075424
12622.094470, 0.075408
12632.299910, 0.075394
12642.501400, 0.075380
12652.698950, 0.075367
12662.255570, 0.075355
12672.445470, 0.075342
12682.631420, 0.075328
12692.177150, 0.075315
12702.355440, 0.075302
12712.529750, 0.075290
12722.064580, 0.075278
12732.231210, 0.075266
12742.393870, 0.075252
12752.552560, 0.075238
12762.072710, 0.075222
12772.223690, 0.075206
12782.370680, 0.075191
12792.513690, 0.075177
12802.019130, 0.075166
12812.154400, 0.075155
12822.285680, 0.075146
12832.412950, 0.075136
12842.536220, 0.075128
12852.023150, 0.075119
12862.138660, 0.075111
12872.250160, 0.075103
12882.357640, 0.075098
12892.461100, 0.075096
12901.929440, 0.075095
12912.025110, 0.075094
12922.116750, 0.075092
12932.204360, 0.075089
12942.287940, 0.075083
12952.367470, 0.075077
12962.442970, 0.075069
12971.885080, 0.075060
12981.952740, 0.075051
12992.016350, 0.075042
13002.075910, 0.075032
13012.131410, 0.075021
13022.182860, 0.075008
13032.230240, 0.074994
13042.273560, 0.074981
13052.312810, 0.074968
13062.347990, 0.074954
13072.379090, 0.074943
13081.779550, 0.074933
13091.802750, 0.074924
13101.821860, 0.074914
13111.836890, 0.074903
13121.847830, 0.074891
13131.854680, 0.074878
13141.857430, 0.074863
13151.856080, 0.074847
13161.850630, 0.074832
13171.841070, 0.074815
13181.827400, 0.074798
13191.809630, 0.074780
13201.787740, 0.074762
13211.761720, 0.074744
13221.731590, 0.074726
13231.697340, 0.074706
13241.658950, 0.074687
13252.238650, 0.074668
13262.191740, 0.074651
13272.140700, 0.074633
13282.085520, 0.074616
13292.026190, 0.074601
13301.962720, 0.074586
13311.895100, 0.074572
13321.823330, 0.074559
13331.747400, 0.074546
13341.667310, 0.074536
13351.583060, 0.074527
13362.113980, 0.074519
13372.021140, 0.074513
13381.924130, 0.074507
13391.822940, 0.074499
13401.717580, 0.074492
13411.608030, 0.074485
13422.112060, 0.074479
13431.993880, 0.074472
13441.871510, 0.074465
13451.744950, 0.074459
13461.614200, 0.074453
13472.095670, 0.074447
13481.956250, 0.074439
13491.812630, 0.074431
13501.664790, 0.074422
13511.512750, 0.074412
13521.971580, 0.074402
13531.810840, 0.074393
13541.645880, 0.074384
13551.476690, 0.074374
13561.917300, 0.074364
13571.739400, 0.074352
13581.557250, 0.074339
13591.984090, 0.074325
13601.793210, 0.074310
13611.598080, 0.074296
13621.398710, 0.074282
13631.807220, 0.074268
13641.599090, 0.074255
13651.386690, 0.074241
13661.781360, 0.074227
13671.560180, 0.074215
13681.945510, 0.074205
13691.715530, 0.074196
13701.481280, 0.074186
13711.852710, 0.074173
13721.609640, 0.074158
13731.362300, 0.074144
13741.719800, 0.074130
13751.463610, 0.074115
13761.811720, 0.074098
13771.546680, 0.074080
13781.885380, 0.074061
13791.611480, 0.074041
13801.333280, 0.074017
13811.657980, 0.073993
13821.370890, 0.073969
13831.686150, 0.073945
13841.390170, 0.073921
13851.695960, 0.073897
13861.391080, 0.073875
13871.687400, 0.073854
13881.373590, 0.073834
13891.660430, 0.073813
13901.337690, 0.073789
13911.615020, 0.073763
13921.283340, 0.073734
13931.551160, 0.073704
13941.210510, 0.073672
13951.468810, 0.073640
13961.722190, 0.073610
13971.367950, 0.073581
13981.611790, 0.073551
13991.248550, 0.073521
14001.482830, 0.073491
14011.712170, 0.073460
14021.335290, 0.073430
14031.555050, 0.073399
14041.169140, 0.073370
14051.379310, 0.073343
14061.584530, 0.073318
14071.184930, 0.073290
14081.380530, 0.073263
14091.571180, 0.073234
14101.157850, 0.073205
14111.338860, 0.073170
14121.514910, 0.073136
14131.087820, 0.073102
14141.254210, 0.073068
14151.415610, 0.073032
14161.572040, 0.072992
14171.126470, 0.072951
14181.273210, 0.072908
14191.414960, 0.072863
14201.551710, 0.072816
14211.087620, 0.072766
14221.214660, 0.072715
14231.336690, 0.072665
14241.453710, 0.072616
14250.971030, 0.072566
14261.078310, 0.072516
14271.180570, 0.072467
14281.277810, 0.072419
14291.370010, 0.072366
14301.457180, 0.072305
14310.946390, 0.072240
14321.023790, 0.072178
14331.096140, 0.072116
14341.163440, 0.072051
14351.225700, 0.071985
14361.282900, 0.071918
14371.335040, 0.071853
14381.382130, 0.071789
14391.424150, 0.071724
14400.870830, 0.071659
14410.903010, 0.071594
14420.930110, 0.071530
14430.952140, 0.071469
14440.969080, 0.071412
14450.980940, 0.071360
14460.987710, 0.071311
14470.989390, 0.071260
14480.985970, 0.071213
14490.977450, 0.071164
14500.963830, 0.071115
14510.945100, 0.071060
14520.921270, 0.071008
14530.892320, 0.070958
14540.858250, 0.070911
14550.819060, 0.070864
14560.774750, 0.070819
14571.310480, 0.070770
14581.255610, 0.070717
14591.195610, 0.070660
14601.130460, 0.070599
14611.060180, 0.070537
14620.984750, 0.070474
14630.904170, 0.070415
14640.818440, 0.070363
14650.727550, 0.070311
14661.213930, 0.070262
14671.112420, 0.070210
14681.005740, 0.070158
14690.893890, 0.070104
14700.776870, 0.070049
14710.654670, 0.069988
14721.107870, 0.069929
14730.975000, 0.069868
14740.836950, 0.069821
14750.693700, 0.069783
14761.124610, 0.069739
14770.970660, 0.069686
14780.811520, 0.069626
14790.647170, 0.069571
14801.055710, 0.069521
14810.880640, 0.069475
14820.700340, 0.069426
14831.091990, 0.069373
14840.900950, 0.069313
14850.704690, 0.069261
14861.079410, 0.069220
14870.872370, 0.069194
14880.660100, 0.069172
14891.017860, 0.069154
14900.794800, 0.069139
14910.566490, 0.069124
14920.907260, 0.069110
14930.668130, 0.069098
14940.997440, 0.069089
14950.747490, 0.069091
14960.492270, 0.069101
14970.804530, 0.069118
14980.538460, 0.069135
14990.839220, 0.069159
15000.562290, 0.069193
15010.851540, 0.069233
15020.563730, 0.069276
15030.841460, 0.069318
15040.542750, 0.069358
15050.808940, 0.069383
15060.499320, 0.069402
15070.753950, 0.069422
15080.433420, 0.069455
15090.676470, 0.069485
15100.913570, 0.069509
15110.576470, 0.069526
15120.801970, 0.069545
15130.453910, 0.069561
15140.667800, 0.069563
15150.875710, 0.069552
15160.511030, 0.069540
15170.707310, 0.069539
15180.331630, 0.069546
15190.516260, 0.069563
15200.694890, 0.069585
15210.302530, 0.069620
15220.469500, 0.069661
15230.630450, 0.069694
15240.785390, 0.069717
15250.370640, 0.069739
15260.513880, 0.069765
15270.651090, 0.069794
15280.782270, 0.069823
15290.345070, 0.069859
15300.464520, 0.069897
15310.577930, 0.069939
15320.685300, 0.069970
15330.225590, 0.069986
15340.321190, 0.069982
15350.410730, 0.069969
15360.494220, 0.069943
15370.571640, 0.069904
15380.642990, 0.069852
15390.708270, 0.069798
15400.208790, 0.069739
15410.262250, 0.069681
15420.309630, 0.069623
15430.350920, 0.069589
15440.386120, 0.069565
15450.415220, 0.069543
15460.438230, 0.069518
15470.455130, 0.069507
15480.465920, 0.069518
15490.470600, 0.069534
15500.469170, 0.069547
15510.461610, 0.069528
15520.447940, 0.069486
15530.428130, 0.069433
15540.402200, 0.069378
15550.370130, 0.069322
15560.331920, 0.069278
15570.287570, 0.069252
15580.237070, 0.069243
15590.180420, 0.069239
15600.117610, 0.069235
15610.048650, 0.069242
15620.524720, 0.069242
15630.443090, 0.069235
15640.355280, 0.069229
15650.261300, 0.069207
15660.161140, 0.069177
15670.054800, 0.069126
15680.491400, 0.069071
15690.372340, 0.069019
15700.247080, 0.068981
15710.115630, 0.068935
15719.977970, 0.068890
15730.381490, 0.068853
15740.231070, 0.068817
15750.074440, 0.068794
15759.911590, 0.068786
15770.288500, 0.068822
15780.112860, 0.068912
15789.930980, 0.069073
15800.287800, 0.069292
15810.093110, 0.069560
15819.892180, 0.069842
15830.228860, 0.070170
15840.015090, 0.070508
15850.338210, 0.070802
15860.111580, 0.071004
15869.878690, 0.071149
15880.181610, 0.071365
15889.935840, 0.071563
15900.225160, 0.071731
15909.966480, 0.071814
15920.242180, 0.071948
15929.970590, 0.072162
15940.232640, 0.072408
15949.948120, 0.072620
15960.196520, 0.072749
15969.899050, 0.072897
15980.133770, 0.072961
15989.823340, 0.072932
16000.044360, 0.072967
