# Wavelength  (nm), Transmission (%)
250.000000, 0.369097
251.000000, 0.144527
252.000000, 0.639530
253.000000, 0.725497
254.000000, 0.836382
255.000000, 0.255277
256.000000, 0.631473
257.000000, 0.551278
258.000000, 0.296618
259.000000, 0.418859
260.000000, 0.312424
261.000000, 0.676804
262.000000, 0.568421
263.000000, 0.446850
264.000000, 0.219619
265.000000, 0.548776
266.000000, 0.271972
267.000000, 0.543810
268.000000, 0.286242
269.000000, 0.420394
270.000000, 0.132648
271.000000, 0.084599
272.000000, 0.575610
273.000000, 0.882428
274.000000, 0.419389
275.000000, 0.944370
276.000000, 0.410748
277.000000, 0.702866
278.000000, 1.240317
279.000000, 0.192594
280.000000, 1.526503
281.000000, 0.996079
282.000000, 1.973831
283.000000, 3.050524
284.000000, 4.272598
285.000000, 3.483527
286.000000, 3.755346
287.000000, 4.983024
288.000000, 5.647728
289.000000, 6.325167
290.000000, 5.054089
291.000000, 5.678628
292.000000, 6.880716
293.000000, 5.756046
294.000000, 6.743207
295.000000, 6.805316
296.000000, 6.497317
297.000000, 5.968635
298.000000, 6.408232
299.000000, 5.438119
300.000000, 7.416075
301.000000, 6.069865
302.000000, 5.265085
303.000000, 6.110501
304.000000, 6.842098
305.000000, 6.117951
306.000000, 7.949849
307.000000, 6.155043
308.000000, 7.051484
309.000000, 7.440597
310.000000, 8.304682
311.000000, 8.828314
312.000000, 12.669263
313.000000, 13.972522
314.000000, 18.274512
315.000000, 17.579886
316.000000, 19.899961
317.000000, 20.385110
318.000000, 20.085240
319.000000, 20.732664
320.000000, 19.735597
321.000000, 16.113866
322.000000, 13.015403
323.000000, 9.893072
324.000000, 7.730611
325.000000, 6.556491
326.000000, 5.307365
327.000000, 5.378449
328.000000, 3.884761
329.000000, 3.271174
330.000000, 1.851796
331.000000, 1.491118
332.000000, 1.576584
333.000000, 0.408802
334.000000, 0.593107
335.000000, 0.371750
336.000000, 0.479655
337.000000, 0.648151
338.000000, 0.748732
339.000000, 0.621752
340.000000, 0.923024
341.000000, 0.703079
342.000000, 1.056186
343.000000, 0.519673
344.000000, 0.598507
345.000000, 0.673874
346.000000, 0.252563
347.000000, 0.409954
348.000000, 0.447041
349.000000, 0.458263
350.000000, 0.870797
351.000000, 0.535913
352.000000, 0.471829
353.000000, 0.539215
354.000000, 0.573829
355.000000, 0.534717
356.000000, 0.388547
357.000000, 0.258807
358.000000, 0.213773
359.000000, 0.184710
360.000000, 0.407267
361.000000, 0.051478
362.000000, 0.372549
363.000000, 0.353508
364.000000, 0.346439
365.000000, 0.241891
366.000000, 0.357430
367.000000, 0.257034
368.000000, 0.351806
369.000000, 0.348463
370.000000, 0.071048
371.000000, 0.118207
372.000000, 0.029480
373.000000, 0.262661
374.000000, 0.507100
375.000000, 0.118195
376.000000, 0.384591
377.000000, 0.104096
378.000000, 0.053465
379.000000, 0.142277
380.000000, 0.061074
381.000000, 0.213163
382.000000, 0.063799
383.000000, 0.296497
384.000000, 0.082641
385.000000, 0.311574
386.000000, 0.140452
387.000000, 0.242172
388.000000, 0.215277
389.000000, 0.379036
390.000000, 0.446436
391.000000, 0.563328
392.000000, 0.708086
393.000000, 0.799435
394.000000, 1.018751
395.000000, 0.945235
396.000000, 0.841667
397.000000, 0.846277
398.000000, 0.853767
399.000000, 0.604229
400.000000, 0.634859
401.000000, 0.561182
402.000000, 0.628087
403.000000, 0.502249
404.000000, 0.432030
405.000000, 0.515661
406.000000, 0.518152
407.000000, 0.607914
408.000000, 0.606602
409.000000, 0.911788
410.000000, 1.010179
411.000000, 1.308167
412.000000, 1.836724
413.000000, 2.703869
414.000000, 3.952610
415.000000, 5.797902
416.000000, 8.528360
417.000000, 12.595281
418.000000, 17.780401
419.000000, 23.782629
420.000000, 30.150602
421.000000, 36.086098
422.000000, 41.094654
423.000000, 44.829520
424.000000, 47.407658
425.000000, 49.510772
426.000000, 52.116702
427.000000, 55.771061
428.000000, 60.983224
429.000000, 67.672586
430.000000, 74.558716
431.000000, 80.943306
432.000000, 86.229889
433.000000, 90.177448
434.000000, 92.619335
435.000000, 94.158058
436.000000, 95.106544
437.000000, 95.750908
438.000000, 96.109634
439.000000, 96.197685
440.000000, 96.126904
441.000000, 95.887840
442.000000, 95.611984
443.000000, 95.351879
444.000000, 95.230091
445.000000, 95.287502
446.000000, 95.365314
447.000000, 95.648342
448.000000, 95.973927
449.000000, 96.325329
450.000000, 96.688049
451.000000, 96.986370
452.000000, 97.137077
453.000000, 97.277374
454.000000, 97.339241
455.000000, 97.318417
456.000000, 97.286873
457.000000, 97.309078
458.000000, 97.213745
459.000000, 97.243431
460.000000, 97.203846
461.000000, 97.284481
462.000000, 97.316898
463.000000, 97.348576
464.000000, 97.345715
465.000000, 97.327465
466.000000, 97.292713
467.000000, 97.225788
468.000000, 97.148830
469.000000, 97.090713
470.000000, 97.000542
471.000000, 96.962288
472.000000, 96.891552
473.000000, 96.929810
474.000000, 96.964035
475.000000, 97.017803
476.000000, 97.143230
477.000000, 97.276497
478.000000, 97.404884
479.000000, 97.504711
480.000000, 97.635841
481.000000, 97.672497
482.000000, 97.792023
483.000000, 97.796871
484.000000, 97.735939
485.000000, 97.675713
486.000000, 97.566448
487.000000, 97.453102
488.000000, 97.346424
489.000000, 97.255001
490.000000, 97.140133
491.000000, 97.117878
492.000000, 97.099236
493.000000, 97.070362
494.000000, 97.124176
495.000000, 97.155575
496.000000, 97.252388
497.000000, 97.378254
498.000000, 97.475571
499.000000, 97.596935
500.000000, 97.721344
501.000000, 97.800758
502.000000, 97.858372
503.000000, 97.917641
504.000000, 97.910248
505.000000, 97.936890
506.000000, 97.899330
507.000000, 97.839130
508.000000, 97.757149
509.000000, 97.689880
510.000000, 97.611427
511.000000, 97.547939
512.000000, 97.473118
513.000000, 97.452774
514.000000, 97.410904
515.000000, 97.432182
516.000000, 97.469627
517.000000, 97.509209
518.000000, 97.589191
519.000000, 97.664761
520.000000, 97.730030
521.000000, 97.787830
522.000000, 97.870461
523.000000, 97.904190
524.000000, 97.994553
525.000000, 97.989613
526.000000, 97.981354
527.000000, 97.942066
528.000000, 97.884552
529.000000, 97.821106
530.000000, 97.711494
531.000000, 97.622639
532.000000, 97.478146
533.000000, 97.382885
534.000000, 97.267735
535.000000, 97.143635
536.000000, 97.072250
537.000000, 97.008846
538.000000, 96.962139
539.000000, 96.918140
540.000000, 96.900494
541.000000, 96.892063
542.000000, 96.940800
543.000000, 96.980843
544.000000, 97.025799
545.000000, 97.092754
546.000000, 97.176460
547.000000, 97.251034
548.000000, 97.296310
549.000000, 97.347298
550.000000, 97.400173
551.000000, 97.435593
552.000000, 97.443909
553.000000, 97.449017
554.000000, 97.417332
555.000000, 97.363888
556.000000, 97.315975
557.000000, 97.258842
558.000000, 97.176224
559.000000, 97.093334
560.000000, 96.993313
561.000000, 96.964016
562.000000, 96.867359
563.000000, 96.809017
564.000000, 96.790630
565.000000, 96.742489
566.000000, 96.719444
567.000000, 96.728844
568.000000, 96.760387
569.000000, 96.810120
570.000000, 96.864243
571.000000, 96.954418
572.000000, 97.019493
573.000000, 97.096161
574.000000, 97.200600
575.000000, 97.292755
576.000000, 97.382095
577.000000, 97.505962
578.000000, 97.579678
579.000000, 97.637356
580.000000, 97.722374
581.000000, 97.748573
582.000000, 97.749565
583.000000, 97.756706
584.000000, 97.740734
585.000000, 97.692478
586.000000, 97.663033
587.000000, 97.599369
588.000000, 97.517014
589.000000, 97.406342
590.000000, 97.345669
591.000000, 97.253078
592.000000, 97.164650
593.000000, 97.072456
594.000000, 97.007664
595.000000, 96.946419
596.000000, 96.885334
597.000000, 96.864857
598.000000, 96.829857
599.000000, 96.833775
600.000000, 96.840599
601.000000, 96.892441
602.000000, 96.955521
603.000000, 97.015377
604.000000, 97.098530
605.000000, 97.201061
606.000000, 97.300831
607.000000, 97.442585
608.000000, 97.559097
609.000000, 97.664803
610.000000, 97.817204
611.000000, 97.931622
612.000000, 98.035511
613.000000, 98.161518
614.000000, 98.255970
615.000000, 98.307716
616.000000, 98.365871
617.000000, 98.407314
618.000000, 98.441498
619.000000, 98.459000
620.000000, 98.461967
621.000000, 98.424828
622.000000, 98.368431
623.000000, 98.338898
624.000000, 98.245911
625.000000, 98.187191
626.000000, 98.111946
627.000000, 98.011456
628.000000, 97.924633
629.000000, 97.837811
630.000000, 97.749676
631.000000, 97.671036
632.000000, 97.576324
633.000000, 97.559826
634.000000, 97.493534
635.000000, 97.446636
636.000000, 97.418339
637.000000, 97.403374
638.000000, 97.403908
639.000000, 97.392048
640.000000, 97.410713
641.000000, 97.437469
642.000000, 97.509346
643.000000, 97.531952
644.000000, 97.599049
645.000000, 97.657887
646.000000, 97.713421
647.000000, 97.788776
648.000000, 97.849190
649.000000, 97.916302
650.000000, 97.981709
651.000000, 98.016121
652.000000, 98.060974
653.000000, 98.106766
654.000000, 98.101879
655.000000, 98.131252
656.000000, 98.122349
657.000000, 98.151871
658.000000, 98.093884
659.000000, 98.077801
660.000000, 98.065189
661.000000, 97.970184
662.000000, 97.907768
663.000000, 97.850559
664.000000, 97.768131
665.000000, 97.663975
666.000000, 97.610481
667.000000, 97.504452
668.000000, 97.431347
669.000000, 97.342503
670.000000, 97.247780
671.000000, 97.168404
672.000000, 97.093277
673.000000, 97.016891
674.000000, 96.960350
675.000000, 96.903179
676.000000, 96.861523
677.000000, 96.811481
678.000000, 96.807213
679.000000, 96.772797
680.000000, 96.761173
681.000000, 96.783684
682.000000, 96.808735
683.000000, 96.830067
684.000000, 96.903431
685.000000, 96.923859
686.000000, 96.988403
687.000000, 97.039566
688.000000, 97.127525
689.000000, 97.193447
690.000000, 97.281235
691.000000, 97.350327
692.000000, 97.424393
693.000000, 97.484211
694.000000, 97.563145
695.000000, 97.619850
696.000000, 97.706547
697.000000, 97.744781
698.000000, 97.786579
699.000000, 97.830490
700.000000, 97.880882
701.000000, 97.907116
702.000000, 97.899857
703.000000, 97.898380
704.000000, 97.886547
705.000000, 97.902760
706.000000, 97.881260
707.000000, 97.846645
708.000000, 97.801815
709.000000, 97.758755
710.000000, 97.731888
711.000000, 97.693333
712.000000, 97.622993
713.000000, 97.596550
714.000000, 97.516533
715.000000, 97.474880
716.000000, 97.404926
717.000000, 97.366341
718.000000, 97.281647
719.000000, 97.249760
720.000000, 97.174698
721.000000, 97.222687
722.000000, 97.147804
723.000000, 97.119640
724.000000, 97.131126
725.000000, 97.048782
726.000000, 97.112202
727.000000, 97.104042
728.000000, 97.089420
729.000000, 97.103950
730.000000, 97.118259
731.000000, 97.114902
732.000000, 97.139622
733.000000, 97.253277
734.000000, 97.335079
735.000000, 97.322769
736.000000, 97.420177
737.000000, 97.495487
738.000000, 97.506454
739.000000, 97.607243
740.000000, 97.660809
741.000000, 97.716019
742.000000, 97.821880
743.000000, 97.834782
744.000000, 97.908886
745.000000, 98.046730
746.000000, 98.062561
747.000000, 98.065567
748.000000, 98.171696
749.000000, 98.216084
750.000000, 98.245548
751.000000, 98.270023
752.000000, 98.278721
753.000000, 98.287426
754.000000, 98.326321
755.000000, 98.323147
756.000000, 98.286568
757.000000, 98.289944
758.000000, 98.281414
759.000000, 98.222263
760.000000, 98.209335
761.000000, 98.163681
762.000000, 98.167492
763.000000, 98.131546
764.000000, 98.096088
765.000000, 98.027412
766.000000, 97.992733
767.000000, 97.946144
768.000000, 97.906158
769.000000, 97.831196
770.000000, 97.791481
771.000000, 97.748207
772.000000, 97.734192
773.000000, 97.682091
774.000000, 97.612270
775.000000, 97.625057
776.000000, 97.633083
777.000000, 97.600918
778.000000, 97.593586
779.000000, 97.558357
780.000000, 97.586231
781.000000, 97.596626
782.000000, 97.625553
783.000000, 97.618687
784.000000, 97.646996
785.000000, 97.636543
786.000000, 97.672169
787.000000, 97.712265
788.000000, 97.762032
789.000000, 97.789726
790.000000, 97.778423
791.000000, 97.832897
792.000000, 97.882568
793.000000, 97.890316
794.000000, 97.931984
795.000000, 97.946629
796.000000, 98.008198
797.000000, 98.031746
798.000000, 98.004341
799.000000, 97.960556
800.000000, 97.939945
801.000000, 97.893032
802.000000, 97.896423
803.000000, 97.835361
804.000000, 97.835670
805.000000, 97.709057
806.000000, 97.611019
807.000000, 97.510860
808.000000, 97.375519
809.000000, 97.232689
810.000000, 97.113480
811.000000, 96.976112
812.000000, 96.789688
813.000000, 96.585491
814.000000, 96.444695
815.000000, 96.142494
816.000000, 95.911728
817.000000, 95.628952
818.000000, 95.383587
819.000000, 95.087883
820.000000, 94.828846
821.000000, 94.524448
822.000000, 94.217072
823.000000, 93.870647
824.000000, 93.554344
825.000000, 93.217419
826.000000, 92.889305
827.000000, 92.592056
828.000000, 92.193848
829.000000, 91.863152
830.000000, 91.537132
831.000000, 91.162487
832.000000, 90.869808
833.000000, 90.530407
834.000000, 90.211826
835.000000, 89.868965
836.000000, 89.553738
837.000000, 89.271385
838.000000, 88.966293
839.000000, 88.654110
840.000000, 88.424892
841.000000, 88.154114
842.000000, 87.906311
843.000000, 87.648308
844.000000, 87.466953
845.000000, 87.226410
846.000000, 87.016205
847.000000, 86.851807
848.000000, 86.661011
849.000000, 86.480427
850.000000, 86.328991
851.000000, 86.187534
852.000000, 86.043846
853.000000, 85.946423
854.000000, 85.824219
855.000000, 85.721889
856.000000, 85.643017
857.000000, 85.566589
858.000000, 85.490463
859.000000, 85.434776
860.000000, 85.394714
861.000000, 85.341530
862.000000, 85.300327
863.000000, 85.294533
864.000000, 85.255493
865.000000, 85.230122
866.000000, 85.220417
867.000000, 85.186436
868.000000, 85.176933
869.000000, 85.174339
870.000000, 85.149551
871.000000, 85.150898
872.000000, 85.132217
873.000000, 85.112511
874.000000, 85.102180
875.000000, 85.088875
876.000000, 85.057678
877.000000, 85.010113
878.000000, 85.007782
879.000000, 84.944000
880.000000, 84.904007
881.000000, 84.857323
882.000000, 84.786652
883.000000, 84.722412
884.000000, 84.652664
885.000000, 84.561058
886.000000, 84.455692
887.000000, 84.361652
888.000000, 84.246281
889.000000, 84.115761
890.000000, 83.996166
891.000000, 83.847740
892.000000, 83.695648
893.000000, 83.531433
894.000000, 83.375492
895.000000, 83.183887
896.000000, 83.007732
897.000000, 82.828667
898.000000, 82.617413
899.000000, 82.405018
900.000000, 82.191208
901.000000, 81.972836
902.000000, 81.753403
903.000000, 81.532166
904.000000, 81.296223
905.000000, 81.064121
906.000000, 80.824883
907.000000, 80.575996
908.000000, 80.345249
909.000000, 80.099300
910.000000, 79.864552
911.000000, 79.612511
912.000000, 79.371647
913.000000, 79.138069
914.000000, 78.904705
915.000000, 78.678402
916.000000, 78.455791
917.000000, 78.230980
918.000000, 78.002323
919.000000, 77.791725
920.000000, 77.595737
921.000000, 77.397472
922.000000, 77.215458
923.000000, 77.033009
924.000000, 76.844563
925.000000, 76.657722
926.000000, 76.492535
927.000000, 76.349995
928.000000, 76.194862
929.000000, 76.043900
930.000000, 75.917732
931.000000, 75.780781
932.000000, 75.666561
933.000000, 75.556473
934.000000, 75.447220
935.000000, 75.352726
936.000000, 75.255466
937.000000, 75.167919
938.000000, 75.078106
939.000000, 75.018364
940.000000, 74.944359
941.000000, 74.900078
942.000000, 74.853214
943.000000, 74.813038
944.000000, 74.786232
945.000000, 74.777309
946.000000, 74.763290
947.000000, 74.766335
948.000000, 74.772846
949.000000, 74.788235
950.000000, 74.815758
951.000000, 74.840115
952.000000, 74.863010
953.000000, 74.895981
954.000000, 74.930187
955.000000, 74.965580
956.000000, 75.009323
957.000000, 75.045315
958.000000, 75.088776
959.000000, 75.129330
960.000000, 75.174603
961.000000, 75.224972
962.000000, 75.271671
963.000000, 75.311459
964.000000, 75.355209
965.000000, 75.398842
966.000000, 75.451050
967.000000, 75.490101
968.000000, 75.526108
969.000000, 75.566441
970.000000, 75.609043
971.000000, 75.626392
972.000000, 75.651661
973.000000, 75.679245
974.000000, 75.693417
975.000000, 75.702744
976.000000, 75.710255
977.000000, 75.708889
978.000000, 75.705112
979.000000, 75.694748
980.000000, 75.683296
981.000000, 75.662167
982.000000, 75.640942
983.000000, 75.606579
984.000000, 75.569263
985.000000, 75.523277
986.000000, 75.470581
987.000000, 75.418152
988.000000, 75.355068
989.000000, 75.283764
990.000000, 75.206013
991.000000, 75.132122
992.000000, 75.041821
993.000000, 74.946678
994.000000, 74.851368
995.000000, 74.741032
996.000000, 74.633438
997.000000, 74.524776
998.000000, 74.408394
999.000000, 74.283817
1000.000000, 74.158024
1001.000000, 74.020203
1002.000000, 73.884293
1003.000000, 73.749380
1004.000000, 73.612381
1005.000000, 73.478796
1006.000000, 73.335117
1007.000000, 73.178720
1008.000000, 73.035168
1009.000000, 72.882328
1010.000000, 72.733837
1011.000000, 72.584152
1012.000000, 72.439888
1013.000000, 72.278694
1014.000000, 72.129522
1015.000000, 71.980209
1016.000000, 71.831709
1017.000000, 71.685129
1018.000000, 71.546124
1019.000000, 71.395798
1020.000000, 71.243784
1021.000000, 71.119331
1022.000000, 70.969421
1023.000000, 70.832502
1024.000000, 70.712845
1025.000000, 70.575539
1026.000000, 70.441111
1027.000000, 70.330770
1028.000000, 70.202110
1029.000000, 70.092413
1030.000000, 69.980171
1031.000000, 69.876150
1032.000000, 69.757351
1033.000000, 69.652590
1034.000000, 69.566944
1035.000000, 69.474052
1036.000000, 69.390919
1037.000000, 69.307404
1038.000000, 69.225044
1039.000000, 69.150627
1040.000000, 69.084753
1041.000000, 69.016008
1042.000000, 68.948349
1043.000000, 68.894020
1044.000000, 68.834431
1045.000000, 68.784861
1046.000000, 68.745537
1047.000000, 68.701477
1048.000000, 68.655146
1049.000000, 68.621506
1050.000000, 68.528984
1051.000000, 68.596741
1052.000000, 68.495424
1053.000000, 68.456980
1054.000000, 68.496584
1055.000000, 68.460011
1056.000000, 68.454170
1057.000000, 68.453598
1058.000000, 68.472218
1059.000000, 68.497189
1060.000000, 68.483625
1061.000000, 68.498003
1062.000000, 68.462799
1063.000000, 68.562637
1064.000000, 68.545219
1065.000000, 68.524937
1066.000000, 68.474506
1067.000000, 68.573910
1068.000000, 68.600536
1069.000000, 68.561493
1070.000000, 68.614555
1071.000000, 68.635633
1072.000000, 68.661760
1073.000000, 68.696770
1074.000000, 68.736002
1075.000000, 68.647303
1076.000000, 68.724609
1077.000000, 68.734699
1078.000000, 68.785587
1079.000000, 68.804178
1080.000000, 68.774012
1081.000000, 68.835855
1082.000000, 68.805773
1083.000000, 68.850124
1084.000000, 68.897490
1085.000000, 68.878494
1086.000000, 68.854267
1087.000000, 68.863258
1088.000000, 68.888226
1089.000000, 68.891197
1090.000000, 68.839197
1091.000000, 68.900143
1092.000000, 68.827320
1093.000000, 68.838259
1094.000000, 68.794014
1095.000000, 68.805155
1096.000000, 68.792036
1097.000000, 68.728390
1098.000000, 68.756750
1099.000000, 68.651449
1100.000000, 68.663519
1101.000000, 68.615414
1102.000000, 68.559624
1103.000000, 68.547812
1104.000000, 68.455172
1105.000000, 68.430502
1106.000000, 68.369101
1107.000000, 68.352613
1108.000000, 68.302139
1109.000000, 68.267273
1110.000000, 68.113447
1111.000000, 68.065462
1112.000000, 68.039320
1113.000000, 67.906782
1114.000000, 67.879128
1115.000000, 67.795872
1116.000000, 67.674795
1117.000000, 67.620853
1118.000000, 67.511417
1119.000000, 67.393089
1120.000000, 67.320345
1121.000000, 67.232925
1122.000000, 67.148430
1123.000000, 67.088633
1124.000000, 66.909147
1125.000000, 66.835354
1126.000000, 66.797749
1127.000000, 66.703251
1128.000000, 66.536095
1129.000000, 66.457928
1130.000000, 66.361170
1131.000000, 66.238729
1132.000000, 66.127428
1133.000000, 66.108097
1134.000000, 65.954611
1135.000000, 65.842455
1136.000000, 65.721272
1137.000000, 65.659008
1138.000000, 65.593634
1139.000000, 65.506014
1140.000000, 65.448341
1141.000000, 65.281887
1142.000000, 65.166065
1143.000000, 65.103407
1144.000000, 65.033855
1145.000000, 64.901478
1146.000000, 64.800985
1147.000000, 64.679163
1148.000000, 64.619432
1149.000000, 64.625559
1150.000000, 64.544771
1151.000000, 64.409996
1152.000000, 64.405525
1153.000000, 64.302885
1154.000000, 64.221962
1155.000000, 64.204189
1156.000000, 64.124239
1157.000000, 64.083515
1158.000000, 63.999472
1159.000000, 63.933813
1160.000000, 63.887810
1161.000000, 63.823294
1162.000000, 63.796511
1163.000000, 63.768669
1164.000000, 63.703550
1165.000000, 63.672062
1166.000000, 63.641026
1167.000000, 63.616367
1168.000000, 63.549175
1169.000000, 63.592299
1170.000000, 63.556442
1171.000000, 63.562532
1172.000000, 63.514561
1173.000000, 63.501661
1174.000000, 63.536583
1175.000000, 63.541424
1176.000000, 63.514252
1177.000000, 63.496412
1178.000000, 63.477097
1179.000000, 63.534815
1180.000000, 63.565012
1181.000000, 63.561108
1182.000000, 63.569347
1183.000000, 63.612133
1184.000000, 63.666321
1185.000000, 63.671600
1186.000000, 63.725685
1187.000000, 63.758062
1188.000000, 63.782673
1189.000000, 63.814812
1190.000000, 63.886581
1191.000000, 63.934013
1192.000000, 63.915916
1193.000000, 64.036148
1194.000000, 64.103361
1195.000000, 64.169811
1196.000000, 64.140574
1197.000000, 64.224030
1198.000000, 64.348448
1199.000000, 64.368908
1200.000000, 64.449900
1201.000000, 64.522160
1202.000000, 64.565094
1203.000000, 64.677223
1204.000000, 64.753462
1205.000000, 64.854416
1206.000000, 64.873692
1207.000000, 64.945286
1208.000000, 65.049961
1209.000000, 65.166346
1210.000000, 65.207760
1211.000000, 65.330299
1212.000000, 65.416777
1213.000000, 65.487270
1214.000000, 65.521626
1215.000000, 65.660305
1216.000000, 65.726315
1217.000000, 65.837109
1218.000000, 65.855284
1219.000000, 66.024277
1220.000000, 66.069637
1221.000000, 66.197136
1222.000000, 66.222996
1223.000000, 66.310974
1224.000000, 66.454605
1225.000000, 66.502045
1226.000000, 66.594873
1227.000000, 66.668152
1228.000000, 66.762836
1229.000000, 66.868547
1230.000000, 66.923979
1231.000000, 66.983284
1232.000000, 67.040426
1233.000000, 67.119585
1234.000000, 67.203117
1235.000000, 67.281012
1236.000000, 67.312132
1237.000000, 67.348919
1238.000000, 67.398932
1239.000000, 67.483025
1240.000000, 67.546921
1241.000000, 67.564968
1242.000000, 67.616859
1243.000000, 67.598488
1244.000000, 67.675097
1245.000000, 67.765732
1246.000000, 67.819036
1247.000000, 67.889505
1248.000000, 67.859770
1249.000000, 67.955311
1250.000000, 68.015713
1251.000000, 68.055628
1252.000000, 68.106117
1253.000000, 68.146690
1254.000000, 68.161118
1255.000000, 68.175085
1256.000000, 68.211843
1257.000000, 68.272978
1258.000000, 68.308067
1259.000000, 68.318966
1260.000000, 68.310953
1261.000000, 68.359035
1262.000000, 68.331367
1263.000000, 68.357502
1264.000000, 68.345510
1265.000000, 68.412762
1266.000000, 68.341946
1267.000000, 68.354628
1268.000000, 68.377235
1269.000000, 68.369932
1270.000000, 68.352024
1271.000000, 68.336395
1272.000000, 68.343988
1273.000000, 68.256666
1274.000000, 68.306087
1275.000000, 68.239071
1276.000000, 68.208572
1277.000000, 68.200884
1278.000000, 68.158936
1279.000000, 68.107100
1280.000000, 68.076593
1281.000000, 68.037407
1282.000000, 67.982910
1283.000000, 67.947826
1284.000000, 67.902479
1285.000000, 67.827728
1286.000000, 67.801414
1287.000000, 67.734396
1288.000000, 67.690628
1289.000000, 67.645382
1290.000000, 67.600586
1291.000000, 67.540546
1292.000000, 67.454086
1293.000000, 67.378302
1294.000000, 67.336641
1295.000000, 67.319725
1296.000000, 67.259083
1297.000000, 67.224657
1298.000000, 67.089621
1299.000000, 67.011932
1300.000000, 66.978632
1301.000000, 66.942492
1302.000000, 66.856966
1303.000000, 66.804003
1304.000000, 66.754068
1305.000000, 66.669168
1306.000000, 66.587332
1307.000000, 66.558193
1308.000000, 66.516159
1309.000000, 66.437517
1310.000000, 66.379671
1311.000000, 66.309547
1312.000000, 66.272488
1313.000000, 66.210283
1314.000000, 66.132339
1315.000000, 66.064329
1316.000000, 66.009594
1317.000000, 65.961372
1318.000000, 65.907391
1319.000000, 65.867689
1320.000000, 65.829412
1321.000000, 65.786577
1322.000000, 65.712610
1323.000000, 65.644341
1324.000000, 65.634464
1325.000000, 65.560383
1326.000000, 65.500807
1327.000000, 65.474175
1328.000000, 65.462788
1329.000000, 65.377293
1330.000000, 65.324732
1331.000000, 65.305361
1332.000000, 65.221102
1333.000000, 65.228971
1334.000000, 65.159447
1335.000000, 65.153778
1336.000000, 65.182739
1337.000000, 65.063641
1338.000000, 65.088787
1339.000000, 65.062569
1340.000000, 65.029484
1341.000000, 65.002480
1342.000000, 64.961042
1343.000000, 64.961901
1344.000000, 64.957340
1345.000000, 64.929066
1346.000000, 64.899691
1347.000000, 64.916519
1348.000000, 64.928637
1349.000000, 64.938791
1350.000000, 64.893486
1351.000000, 64.936165
1352.000000, 64.922649
1353.000000, 64.934193
1354.000000, 64.916349
1355.000000, 64.960072
1356.000000, 64.974041
1357.000000, 64.969940
1358.000000, 65.009422
1359.000000, 65.011494
1360.000000, 65.045155
1361.000000, 65.061375
1362.000000, 65.097054
1363.000000, 65.066004
1364.000000, 65.031199
1365.000000, 65.105606
1366.000000, 65.132643
1367.000000, 65.097532
1368.000000, 65.048473
1369.000000, 64.983103
1370.000000, 64.884823
1371.000000, 64.771664
1372.000000, 64.585497
1373.000000, 64.354677
1374.000000, 64.151094
1375.000000, 63.865971
1376.000000, 63.564602
1377.000000, 63.301088
1378.000000, 62.995939
1379.000000, 62.760757
1380.000000, 62.607473
1381.000000, 62.450796
1382.000000, 62.345222
1383.000000, 62.415997
1384.000000, 62.494560
1385.000000, 62.592041
1386.000000, 62.773815
1387.000000, 62.920681
1388.000000, 63.173494
1389.000000, 63.414228
1390.000000, 63.679787
1391.000000, 63.950962
1392.000000, 64.195892
1393.000000, 64.431282
1394.000000, 64.784504
1395.000000, 65.050163
1396.000000, 65.345074
1397.000000, 65.629044
1398.000000, 65.917744
1399.000000, 66.140306
1400.000000, 66.337051
1401.000000, 66.686026
1402.000000, 66.900713
1403.000000, 67.112629
1404.000000, 67.316835
1405.000000, 67.544304
1406.000000, 67.761366
1407.000000, 67.980066
1408.000000, 68.206800
1409.000000, 68.366430
1410.000000, 68.557493
1411.000000, 68.766201
1412.000000, 68.925087
1413.000000, 69.104887
1414.000000, 69.307611
1415.000000, 69.464695
1416.000000, 69.603825
1417.000000, 69.797110
1418.000000, 69.964708
1419.000000, 70.101425
1420.000000, 70.289440
1421.000000, 70.438005
1422.000000, 70.631521
1423.000000, 70.795397
1424.000000, 70.965748
1425.000000, 71.056767
1426.000000, 71.253071
1427.000000, 71.382051
1428.000000, 71.509726
1429.000000, 71.650568
1430.000000, 71.842346
1431.000000, 71.968565
1432.000000, 72.092947
1433.000000, 72.244221
1434.000000, 72.366127
1435.000000, 72.524996
1436.000000, 72.648083
1437.000000, 72.788788
1438.000000, 72.885500
1439.000000, 73.051996
1440.000000, 73.184784
1441.000000, 73.348541
1442.000000, 73.468220
1443.000000, 73.556448
1444.000000, 73.709248
1445.000000, 73.809853
1446.000000, 73.956455
1447.000000, 74.056177
1448.000000, 74.162355
1449.000000, 74.282614
1450.000000, 74.391884
1451.000000, 74.473337
1452.000000, 74.588140
1453.000000, 74.722754
1454.000000, 74.830566
1455.000000, 74.909767
1456.000000, 75.004511
1457.000000, 75.140173
1458.000000, 75.189480
1459.000000, 75.323896
1460.000000, 75.396456
1461.000000, 75.525492
1462.000000, 75.531515
1463.000000, 75.665581
1464.000000, 75.726862
1465.000000, 75.821472
1466.000000, 75.902832
1467.000000, 75.980314
1468.000000, 76.023245
1469.000000, 76.111029
1470.000000, 76.169064
1471.000000, 76.253309
1472.000000, 76.318144
1473.000000, 76.380825
1474.000000, 76.379803
1475.000000, 76.477509
1476.000000, 76.514244
1477.000000, 76.590483
1478.000000, 76.631414
1479.000000, 76.655239
1480.000000, 76.726688
1481.000000, 76.769978
1482.000000, 76.797533
1483.000000, 76.838829
1484.000000, 76.840288
1485.000000, 76.899786
1486.000000, 76.933069
1487.000000, 76.897575
1488.000000, 76.968239
1489.000000, 76.973295
1490.000000, 77.006954
1491.000000, 77.018887
1492.000000, 77.042517
1493.000000, 77.022894
1494.000000, 77.040779
1495.000000, 77.053040
1496.000000, 77.081991
1497.000000, 77.089584
1498.000000, 77.022234
1499.000000, 77.056581
1500.000000, 77.095139
1501.000000, 77.089931
1502.000000, 77.053804
1503.000000, 77.037210
1504.000000, 77.043621
1505.000000, 77.038853
1506.000000, 77.006628
1507.000000, 76.957273
1508.000000, 76.999323
1509.000000, 76.970106
1510.000000, 76.977835
1511.000000, 76.938328
1512.000000, 76.889999
1513.000000, 76.865644
1514.000000, 76.907774
1515.000000, 76.821163
1516.000000, 76.807184
1517.000000, 76.838646
1518.000000, 76.789595
1519.000000, 76.708286
1520.000000, 76.728819
1521.000000, 76.720417
1522.000000, 76.643457
1523.000000, 76.621403
1524.000000, 76.556585
1525.000000, 76.551287
1526.000000, 76.519434
1527.000000, 76.478104
1528.000000, 76.468540
1529.000000, 76.448452
1530.000000, 76.376097
1531.000000, 76.349739
1532.000000, 76.329279
1533.000000, 76.289330
1534.000000, 76.225580
1535.000000, 76.209167
1536.000000, 76.129049
1537.000000, 76.128242
1538.000000, 76.042454
1539.000000, 76.057774
1540.000000, 76.042759
1541.000000, 75.973429
1542.000000, 75.931484
1543.000000, 75.912876
1544.000000, 75.870745
1545.000000, 75.843494
1546.000000, 75.799078
1547.000000, 75.750597
1548.000000, 75.782965
1549.000000, 75.659689
1550.000000, 75.624380
1551.000000, 75.615698
1552.000000, 75.605175
1553.000000, 75.571363
1554.000000, 75.504429
1555.000000, 75.515104
1556.000000, 75.460833
1557.000000, 75.447861
1558.000000, 75.429619
1559.000000, 75.380243
1560.000000, 75.358849
1561.000000, 75.338570
1562.000000, 75.283579
1563.000000, 75.305502
1564.000000, 75.231071
1565.000000, 75.234152
1566.000000, 75.210371
1567.000000, 75.234751
1568.000000, 75.143805
1569.000000, 75.149715
1570.000000, 75.132095
1571.000000, 75.100401
1572.000000, 75.058661
1573.000000, 75.113127
1574.000000, 75.060923
1575.000000, 75.080519
1576.000000, 75.067604
1577.000000, 75.003361
1578.000000, 75.050995
1579.000000, 74.985357
1580.000000, 75.031948
1581.000000, 75.005623
1582.000000, 75.026978
1583.000000, 74.999619
1584.000000, 74.955788
1585.000000, 75.013678
1586.000000, 74.979959
1587.000000, 75.016859
1588.000000, 75.029985
1589.000000, 74.997974
1590.000000, 75.003977
1591.000000, 75.050785
1592.000000, 75.032339
1593.000000, 75.077225
1594.000000, 75.121002
1595.000000, 75.069761
1596.000000, 75.103186
1597.000000, 75.140902
1598.000000, 75.126717
1599.000000, 75.129635
1600.000000, 75.204239
1601.000000, 75.182467
1602.000000, 75.211002
1603.000000, 75.259413
1604.000000, 75.259840
1605.000000, 75.236023
1606.000000, 75.328671
1607.000000, 75.331770
1608.000000, 75.377256
1609.000000, 75.412075
1610.000000, 75.519440
1611.000000, 75.500326
1612.000000, 75.526274
1613.000000, 75.522341
1614.000000, 75.601727
1615.000000, 75.665436
1616.000000, 75.650877
1617.000000, 75.761812
1618.000000, 75.829876
1619.000000, 75.807911
1620.000000, 75.896435
1621.000000, 75.881609
1622.000000, 76.007832
1623.000000, 76.057142
1624.000000, 76.162434
1625.000000, 76.141954
1626.000000, 76.175810
1627.000000, 76.202568
1628.000000, 76.256479
1629.000000, 76.348366
1630.000000, 76.378229
1631.000000, 76.530035
1632.000000, 76.557484
1633.000000, 76.635860
1634.000000, 76.665167
1635.000000, 76.743963
1636.000000, 76.853518
1637.000000, 76.907642
1638.000000, 76.973549
1639.000000, 77.037668
1640.000000, 77.198414
1641.000000, 77.242022
1642.000000, 77.311249
1643.000000, 77.361084
1644.000000, 77.412783
1645.000000, 77.510952
1646.000000, 77.584866
1647.000000, 77.685038
1648.000000, 77.769999
1649.000000, 77.797083
1650.000000, 77.880005
1651.000000, 78.041428
1652.000000, 78.051552
1653.000000, 78.164864
1654.000000, 78.254082
1655.000000, 78.385723
1656.000000, 78.372272
1657.000000, 78.516781
1658.000000, 78.613533
1659.000000, 78.680481
1660.000000, 78.790001
1661.000000, 78.894985
1662.000000, 78.996120
1663.000000, 79.115055
1664.000000, 79.188927
1665.000000, 79.259079
1666.000000, 79.389965
1667.000000, 79.506283
1668.000000, 79.573792
1669.000000, 79.592735
1670.000000, 79.745998
1671.000000, 79.846588
1672.000000, 79.988766
1673.000000, 80.078953
1674.000000, 80.169071
1675.000000, 80.226910
1676.000000, 80.326450
1677.000000, 80.443871
1678.000000, 80.523586
1679.000000, 80.637047
1680.000000, 80.699902
1681.000000, 80.848934
1682.000000, 80.928898
1683.000000, 81.089878
1684.000000, 81.130154
1685.000000, 81.215626
1686.000000, 81.329613
1687.000000, 81.401276
1688.000000, 81.588039
1689.000000, 81.677002
1690.000000, 81.719784
1691.000000, 81.840691
1692.000000, 82.035694
1693.000000, 82.043377
1694.000000, 82.148449
1695.000000, 82.264584
1696.000000, 82.350361
1697.000000, 82.463093
1698.000000, 82.525410
1699.000000, 82.629719
1700.000000, 82.715454
1701.000000, 82.883610
1702.000000, 83.007008
1703.000000, 83.059361
1704.000000, 83.149685
1705.000000, 83.190243
1706.000000, 83.274986
1707.000000, 83.471752
1708.000000, 83.516411
1709.000000, 83.634651
1710.000000, 83.734142
1711.000000, 83.758778
1712.000000, 83.894440
1713.000000, 83.989845
1714.000000, 84.034912
1715.000000, 84.158470
1716.000000, 84.206409
1717.000000, 84.310806
1718.000000, 84.359097
1719.000000, 84.510933
1720.000000, 84.622826
1721.000000, 84.629665
1722.000000, 84.789677
1723.000000, 84.818943
1724.000000, 84.868256
1725.000000, 85.013798
1726.000000, 85.113396
1727.000000, 85.152508
1728.000000, 85.314392
1729.000000, 85.372856
1730.000000, 85.288086
1731.000000, 85.491783
1732.000000, 85.540512
1733.000000, 85.597549
1734.000000, 85.700031
1735.000000, 85.673855
1736.000000, 85.814850
1737.000000, 85.811092
1738.000000, 85.936653
1739.000000, 85.970314
1740.000000, 86.023296
1741.000000, 86.082348
1742.000000, 86.133961
1743.000000, 86.204533
1744.000000, 86.209301
1745.000000, 86.228863
1746.000000, 86.382393
1747.000000, 86.291397
1748.000000, 86.440945
1749.000000, 86.507854
1750.000000, 86.517757
1751.000000, 86.617767
1752.000000, 86.613598
1753.000000, 86.652687
1754.000000, 86.688953
1755.000000, 86.741325
1756.000000, 86.803650
1757.000000, 86.787521
1758.000000, 86.850414
1759.000000, 86.883884
1760.000000, 86.837971
1761.000000, 86.857429
1762.000000, 86.940514
1763.000000, 86.941158
1764.000000, 86.985676
1765.000000, 87.034286
1766.000000, 86.984142
1767.000000, 86.967529
1768.000000, 87.028015
1769.000000, 87.080006
1770.000000, 87.088081
1771.000000, 87.062252
1772.000000, 87.000282
1773.000000, 87.062683
1774.000000, 87.061916
1775.000000, 87.181057
1776.000000, 87.174641
1777.000000, 87.060703
1778.000000, 87.072269
1779.000000, 87.079468
1780.000000, 87.175987
1781.000000, 87.077610
1782.000000, 87.083515
1783.000000, 87.037922
1784.000000, 87.069920
1785.000000, 87.084106
1786.000000, 87.068325
1787.000000, 87.024097
1788.000000, 86.989277
1789.000000, 86.997135
1790.000000, 86.961132
1791.000000, 87.004929
1792.000000, 86.988350
1793.000000, 86.934540
1794.000000, 86.878670
1795.000000, 86.880211
1796.000000, 86.827026
1797.000000, 86.866817
1798.000000, 86.813137
1799.000000, 86.831379
1800.000000, 86.714867
1801.000000, 86.772961
1802.000000, 86.714489
1803.000000, 86.631702
1804.000000, 86.580334
1805.000000, 86.647617
1806.000000, 86.597210
1807.000000, 86.503948
1808.000000, 86.480839
1809.000000, 86.376759
1810.000000, 86.350746
1811.000000, 86.397255
1812.000000, 86.340122
1813.000000, 86.258415
1814.000000, 86.151443
1815.000000, 86.183910
1816.000000, 86.043919
1817.000000, 86.031918
1818.000000, 85.983700
1819.000000, 85.960960
1820.000000, 85.944550
1821.000000, 85.881733
1822.000000, 85.815601
1823.000000, 85.808147
1824.000000, 85.690075
1825.000000, 85.789127
1826.000000, 85.654114
1827.000000, 85.593864
1828.000000, 85.529079
1829.000000, 85.517506
1830.000000, 85.475887
1831.000000, 85.276802
1832.000000, 85.351410
1833.000000, 85.280907
1834.000000, 85.202862
1835.000000, 85.135410
1836.000000, 85.172939
1837.000000, 85.024887
1838.000000, 85.004055
1839.000000, 84.910084
1840.000000, 85.004749
1841.000000, 84.807518
1842.000000, 84.727982
1843.000000, 84.683319
1844.000000, 84.668388
1845.000000, 84.606510
1846.000000, 84.458878
1847.000000, 84.460873
1848.000000, 84.483219
1849.000000, 84.359467
1850.000000, 84.217583
1851.000000, 84.243500
1852.000000, 84.249420
1853.000000, 84.169704
1854.000000, 84.067139
1855.000000, 83.799202
1856.000000, 83.949451
1857.000000, 83.952728
1858.000000, 83.848946
1859.000000, 83.718647
1860.000000, 83.626415
1861.000000, 83.706490
1862.000000, 83.550079
1863.000000, 83.639717
1864.000000, 83.445061
1865.000000, 83.425385
1866.000000, 83.301373
1867.000000, 83.304585
1868.000000, 83.174328
1869.000000, 83.151173
1870.000000, 83.240074
1871.000000, 83.174652
1872.000000, 83.141598
1873.000000, 82.958748
1874.000000, 82.950504
1875.000000, 82.877800
1876.000000, 82.940388
1877.000000, 82.680004
1878.000000, 82.747715
1879.000000, 82.591690
1880.000000, 82.711494
1881.000000, 82.657639
1882.000000, 82.473553
1883.000000, 82.555191
1884.000000, 82.525047
1885.000000, 82.383320
1886.000000, 82.432640
1887.000000, 82.350056
1888.000000, 82.118156
1889.000000, 82.177639
1890.000000, 82.205017
1891.000000, 82.058201
1892.000000, 81.985294
1893.000000, 81.976139
1894.000000, 82.016815
1895.000000, 81.923172
1896.000000, 81.847252
1897.000000, 81.905743
1898.000000, 81.805965
1899.000000, 81.891132
1900.000000, 81.730362
1901.000000, 81.663849
1902.000000, 81.645939
1903.000000, 81.546490
1904.000000, 81.521275
1905.000000, 81.538250
1906.000000, 81.666176
1907.000000, 81.501682
1908.000000, 81.443821
1909.000000, 81.439270
1910.000000, 81.508656
1911.000000, 81.416576
1912.000000, 81.548553
1913.000000, 81.237736
1914.000000, 81.393597
1915.000000, 81.394592
1916.000000, 81.160847
1917.000000, 81.265244
1918.000000, 81.198917
1919.000000, 81.177483
1920.000000, 81.079933
1921.000000, 81.125782
1922.000000, 81.152348
1923.000000, 81.126095
1924.000000, 80.984375
1925.000000, 81.177979
1926.000000, 81.002190
1927.000000, 80.956150
1928.000000, 81.085037
1929.000000, 80.972984
1930.000000, 81.136120
1931.000000, 80.791561
1932.000000, 80.994167
1933.000000, 81.022812
1934.000000, 80.902843
1935.000000, 80.922760
1936.000000, 80.939346
1937.000000, 81.074364
1938.000000, 80.909061
1939.000000, 80.926037
1940.000000, 80.860249
1941.000000, 80.860874
1942.000000, 80.816288
1943.000000, 80.865944
1944.000000, 80.984776
1945.000000, 80.930161
1946.000000, 80.996208
1947.000000, 80.799469
1948.000000, 80.700352
1949.000000, 80.985897
1950.000000, 80.890308
1951.000000, 80.863106
1952.000000, 80.819382
1953.000000, 80.758087
1954.000000, 80.952446
1955.000000, 81.078682
1956.000000, 80.942673
1957.000000, 80.880150
1958.000000, 81.005329
1959.000000, 80.975056
1960.000000, 80.956974
1961.000000, 80.891430
1962.000000, 81.027775
1963.000000, 80.917664
1964.000000, 80.783497
1965.000000, 80.944168
1966.000000, 81.201454
1967.000000, 80.952915
1968.000000, 80.962460
1969.000000, 81.034592
1970.000000, 81.149792
1971.000000, 81.186676
1972.000000, 81.088814
1973.000000, 81.051617
1974.000000, 81.141537
1975.000000, 81.186615
1976.000000, 81.394154
1977.000000, 81.251076
1978.000000, 81.039673
1979.000000, 81.276073
1980.000000, 81.234421
1981.000000, 81.293102
1982.000000, 81.260853
1983.000000, 81.348087
1984.000000, 81.413864
1985.000000, 81.341370
1986.000000, 81.365318
1987.000000, 81.397083
1988.000000, 81.359905
1989.000000, 81.559608
1990.000000, 81.408043
1991.000000, 81.574326
1992.000000, 81.595787
1993.000000, 81.484669
1994.000000, 81.585964
1995.000000, 81.595997
1996.000000, 81.801289
1997.000000, 81.766148
1998.000000, 81.772549
1999.000000, 81.789795
2000.000000, 81.926060
2001.000000, 81.659733
2002.000000, 81.989670
2003.000000, 81.896141
2004.000000, 81.765926
2005.000000, 81.885624
2006.000000, 82.006920
2007.000000, 81.918907
2008.000000, 82.182934
2009.000000, 82.135597
2010.000000, 82.244411
2011.000000, 82.184444
2012.000000, 82.278091
2013.000000, 82.319153
2014.000000, 82.251236
2015.000000, 82.502537
2016.000000, 82.455055
2017.000000, 82.422173
2018.000000, 82.521049
2019.000000, 82.483276
2020.000000, 82.605812
2021.000000, 82.529720
2022.000000, 82.553883
2023.000000, 82.603569
2024.000000, 82.781479
2025.000000, 82.692616
2026.000000, 82.717457
2027.000000, 82.682480
2028.000000, 82.661644
2029.000000, 82.730732
2030.000000, 82.774666
2031.000000, 82.965786
2032.000000, 82.878742
2033.000000, 82.911057
2034.000000, 83.135899
2035.000000, 83.010937
2036.000000, 83.316223
2037.000000, 83.052429
2038.000000, 83.177258
2039.000000, 83.209648
2040.000000, 83.180870
2041.000000, 83.283474
2042.000000, 83.278023
2043.000000, 83.422356
2044.000000, 83.513943
2045.000000, 83.418491
2046.000000, 83.603500
2047.000000, 83.722271
2048.000000, 83.662949
2049.000000, 83.572655
2050.000000, 83.697254
2051.000000, 83.809277
2052.000000, 83.845745
2053.000000, 83.927086
2054.000000, 83.827984
2055.000000, 83.874157
2056.000000, 83.968582
2057.000000, 84.094044
2058.000000, 84.030472
2059.000000, 84.350330
2060.000000, 84.144817
2061.000000, 84.219208
2062.000000, 84.394875
2063.000000, 84.293560
2064.000000, 84.434666
2065.000000, 84.359657
2066.000000, 84.484104
2067.000000, 84.563499
2068.000000, 84.716038
2069.000000, 84.560867
2070.000000, 84.701218
2071.000000, 84.841164
2072.000000, 84.783947
2073.000000, 84.729485
2074.000000, 84.843761
2075.000000, 85.194786
2076.000000, 84.959175
2077.000000, 84.920418
2078.000000, 85.226719
2079.000000, 85.149101
2080.000000, 85.332565
2081.000000, 85.303787
2082.000000, 85.269783
2083.000000, 85.701473
2084.000000, 85.411793
2085.000000, 85.678635
2086.000000, 85.582897
2087.000000, 85.628674
2088.000000, 85.561600
2089.000000, 85.719845
2090.000000, 85.723267
2091.000000, 85.917950
2092.000000, 85.956284
2093.000000, 85.757675
2094.000000, 85.819717
2095.000000, 85.904758
2096.000000, 85.929787
2097.000000, 86.020981
2098.000000, 86.218716
2099.000000, 86.085026
2100.000000, 86.486057
2101.000000, 86.185387
2102.000000, 86.458805
2103.000000, 86.455914
2104.000000, 86.326836
2105.000000, 86.365677
2106.000000, 86.618023
2107.000000, 86.453049
2108.000000, 86.270363
2109.000000, 86.675907
2110.000000, 86.597366
2111.000000, 87.011181
2112.000000, 86.744759
2113.000000, 86.696266
2114.000000, 86.682152
2115.000000, 86.779835
2116.000000, 87.015614
2117.000000, 86.744473
2118.000000, 86.728355
2119.000000, 87.065559
2120.000000, 86.924129
2121.000000, 86.900394
2122.000000, 87.131382
2123.000000, 86.916100
2124.000000, 86.943825
2125.000000, 86.768089
2126.000000, 87.062099
2127.000000, 87.122204
2128.000000, 87.141754
2129.000000, 87.253933
2130.000000, 86.835018
2131.000000, 87.033669
2132.000000, 87.018986
2133.000000, 87.333897
2134.000000, 87.339081
2135.000000, 87.308567
2136.000000, 86.882774
2137.000000, 86.856102
2138.000000, 87.078274
2139.000000, 87.141312
2140.000000, 86.907997
2141.000000, 87.219090
2142.000000, 87.342834
2143.000000, 87.167263
2144.000000, 86.829105
2145.000000, 86.835369
2146.000000, 87.054398
2147.000000, 86.735382
2148.000000, 86.974602
2149.000000, 86.750553
2150.000000, 86.889004
2151.000000, 86.630360
2152.000000, 86.729191
2153.000000, 86.632847
2154.000000, 86.442860
2155.000000, 86.565910
2156.000000, 86.683235
2157.000000, 86.502068
2158.000000, 86.394142
2159.000000, 86.551861
2160.000000, 86.373199
2161.000000, 86.545868
2162.000000, 86.256927
2163.000000, 86.165215
2164.000000, 86.091320
2165.000000, 86.028500
2166.000000, 86.006744
2167.000000, 85.904358
2168.000000, 85.772827
2169.000000, 85.857090
2170.000000, 85.619415
2171.000000, 85.821255
2172.000000, 85.850533
2173.000000, 85.588490
2174.000000, 85.195705
2175.000000, 85.183826
2176.000000, 85.387455
2177.000000, 85.057301
2178.000000, 84.716049
2179.000000, 84.611694
2180.000000, 84.487484
2181.000000, 84.435513
2182.000000, 84.238941
2183.000000, 83.739368
2184.000000, 83.719406
2185.000000, 83.472424
2186.000000, 83.273899
2187.000000, 82.759640
2188.000000, 82.362347
2189.000000, 82.050076
2190.000000, 81.755474
2191.000000, 81.208065
2192.000000, 80.534149
2193.000000, 80.203430
2194.000000, 79.175346
2195.000000, 78.310452
2196.000000, 77.523159
2197.000000, 76.879848
2198.000000, 76.486206
2199.000000, 75.340828
2200.000000, 74.601433
2201.000000, 73.589458
2202.000000, 73.321873
2203.000000, 72.507717
2204.000000, 71.898243
2205.000000, 71.186928
2206.000000, 70.730238
2207.000000, 70.400578
2208.000000, 70.174522
2209.000000, 69.850611
2210.000000, 69.968569
2211.000000, 69.336481
2212.000000, 69.588932
2213.000000, 69.561422
2214.000000, 69.862843
2215.000000, 69.753717
2216.000000, 70.203499
2217.000000, 69.961527
2218.000000, 70.906834
2219.000000, 70.745169
2220.000000, 70.675117
2221.000000, 71.066961
2222.000000, 71.268841
2223.000000, 71.881588
2224.000000, 72.178116
2225.000000, 72.015423
2226.000000, 72.230038
2227.000000, 72.368557
2228.000000, 72.668468
2229.000000, 72.809307
2230.000000, 73.007267
2231.000000, 72.802372
2232.000000, 73.128223
2233.000000, 73.280376
2234.000000, 73.620358
2235.000000, 73.506084
2236.000000, 73.420918
2237.000000, 73.192425
2238.000000, 73.447273
2239.000000, 73.288330
2240.000000, 73.459900
2241.000000, 73.278851
2242.000000, 73.852512
2243.000000, 73.506138
2244.000000, 73.392342
2245.000000, 73.632694
2246.000000, 74.240849
2247.000000, 73.638107
2248.000000, 73.552021
2249.000000, 74.311695
2250.000000, 73.820938
2251.000000, 74.026165
2252.000000, 73.829262
2253.000000, 74.234974
2254.000000, 74.516907
2255.000000, 74.150410
2256.000000, 73.982151
2257.000000, 74.106365
2258.000000, 74.597023
2259.000000, 74.761017
2260.000000, 75.093857
2261.000000, 74.987457
2262.000000, 75.074696
2263.000000, 75.686684
2264.000000, 75.708557
2265.000000, 75.800861
2266.000000, 75.918594
2267.000000, 75.919029
2268.000000, 76.038242
2269.000000, 76.342827
2270.000000, 76.638519
2271.000000, 76.667416
2272.000000, 76.660568
2273.000000, 77.621761
2274.000000, 77.150295
2275.000000, 77.335361
2276.000000, 77.193073
2277.000000, 77.792587
2278.000000, 78.313965
2279.000000, 78.001228
2280.000000, 77.830128
2281.000000, 77.756626
2282.000000, 78.437878
2283.000000, 78.863338
2284.000000, 78.305099
2285.000000, 78.328739
2286.000000, 79.125977
2287.000000, 78.895504
2288.000000, 78.714260
2289.000000, 78.910084
2290.000000, 78.694038
2291.000000, 78.913445
2292.000000, 78.636452
2293.000000, 79.060085
2294.000000, 79.165958
2295.000000, 79.517048
2296.000000, 79.818703
2297.000000, 79.628292
2298.000000, 79.188835
2299.000000, 80.000851
2300.000000, 79.782635
2301.000000, 79.886620
2302.000000, 80.293934
2303.000000, 79.580757
2304.000000, 79.932674
2305.000000, 80.150551
2306.000000, 80.261662
2307.000000, 80.429173
2308.000000, 80.254009
2309.000000, 80.381775
2310.000000, 80.190678
2311.000000, 79.930660
2312.000000, 80.233181
2313.000000, 80.430126
2314.000000, 80.406776
2315.000000, 80.029957
2316.000000, 79.864300
2317.000000, 80.692863
2318.000000, 80.441967
2319.000000, 80.485909
2320.000000, 80.580669
2321.000000, 80.516377
2322.000000, 80.172894
2323.000000, 80.433033
2324.000000, 80.146221
2325.000000, 80.331524
2326.000000, 79.873802
2327.000000, 80.589405
2328.000000, 80.405613
2329.000000, 80.515751
2330.000000, 80.980659
2331.000000, 80.683910
2332.000000, 80.506462
2333.000000, 80.239491
2334.000000, 80.171146
2335.000000, 80.266533
2336.000000, 80.038216
2337.000000, 80.229206
2338.000000, 80.395927
2339.000000, 79.978142
2340.000000, 80.323750
2341.000000, 80.097424
2342.000000, 80.202393
2343.000000, 79.694431
2344.000000, 79.678421
2345.000000, 80.561329
2346.000000, 80.195866
2347.000000, 79.872604
2348.000000, 80.090073
2349.000000, 79.991917
2350.000000, 79.883179
2351.000000, 79.481453
2352.000000, 80.263485
2353.000000, 79.628536
2354.000000, 79.872890
2355.000000, 80.044788
2356.000000, 79.803970
2357.000000, 79.549690
2358.000000, 79.489639
2359.000000, 79.046276
2360.000000, 79.085388
2361.000000, 79.328911
2362.000000, 79.390430
2363.000000, 79.959770
2364.000000, 79.156170
2365.000000, 79.884201
2366.000000, 78.923382
2367.000000, 79.126820
2368.000000, 78.794830
2369.000000, 79.400337
2370.000000, 78.786842
2371.000000, 79.006989
2372.000000, 78.773113
2373.000000, 79.503986
2374.000000, 78.871307
2375.000000, 78.554398
2376.000000, 79.257996
2377.000000, 79.148277
2378.000000, 78.462811
2379.000000, 78.845993
2380.000000, 78.143597
2381.000000, 78.941986
2382.000000, 78.676235
2383.000000, 79.348991
2384.000000, 78.379776
2385.000000, 78.680405
2386.000000, 77.773586
2387.000000, 78.803494
2388.000000, 79.097111
2389.000000, 78.321281
2390.000000, 77.954193
2391.000000, 77.755062
2392.000000, 78.072357
2393.000000, 77.913677
2394.000000, 78.462856
2395.000000, 77.588490
2396.000000, 77.917709
2397.000000, 77.876419
2398.000000, 77.559010
2399.000000, 77.846066
2400.000000, 77.918968
2401.000000, 78.315582
2402.000000, 76.828846
2403.000000, 78.209618
2404.000000, 77.001160
2405.000000, 77.445343
2406.000000, 77.446804
2407.000000, 77.128571
2408.000000, 77.310951
2409.000000, 77.057957
2410.000000, 77.291389
2411.000000, 77.102615
2412.000000, 76.394272
2413.000000, 76.239693
2414.000000, 76.768616
2415.000000, 77.050438
2416.000000, 77.194580
2417.000000, 76.427994
2418.000000, 76.716328
2419.000000, 77.164482
2420.000000, 76.146910
2421.000000, 76.413963
2422.000000, 75.722738
2423.000000, 76.143662
2424.000000, 75.994616
2425.000000, 75.846241
2426.000000, 75.157608
2427.000000, 75.295685
2428.000000, 75.971741
2429.000000, 75.279078
2430.000000, 75.301258
2431.000000, 75.973583
2432.000000, 75.220304
2433.000000, 74.925985
2434.000000, 75.225176
2435.000000, 75.627541
2436.000000, 75.064169
2437.000000, 74.978086
2438.000000, 74.308519
2439.000000, 75.172001
2440.000000, 75.660839
2441.000000, 74.849600
2442.000000, 75.278347
2443.000000, 75.820038
2444.000000, 74.940954
2445.000000, 74.953741
2446.000000, 73.356663
2447.000000, 74.450457
2448.000000, 74.648983
2449.000000, 73.861609
2450.000000, 75.034285
2451.000000, 73.924431
2452.000000, 73.938534
2453.000000, 73.864702
2454.000000, 73.821827
2455.000000, 74.182497
2456.000000, 74.199083
2457.000000, 73.796139
2458.000000, 73.442038
2459.000000, 73.819599
2460.000000, 72.789120
2461.000000, 73.424849
2462.000000, 73.923300
2463.000000, 73.244263
2464.000000, 73.255932
2465.000000, 72.805210
2466.000000, 73.282249
2467.000000, 73.725542
2468.000000, 73.551477
2469.000000, 73.419495
2470.000000, 73.597610
2471.000000, 73.132309
2472.000000, 72.988571
2473.000000, 72.957867
2474.000000, 72.023449
2475.000000, 73.815788
2476.000000, 72.454350
2477.000000, 72.763824
2478.000000, 72.217291
2479.000000, 73.117157
2480.000000, 72.691422
2481.000000, 71.978230
2482.000000, 72.223391
2483.000000, 71.633282
2484.000000, 72.835836
2485.000000, 71.464018
2486.000000, 71.122826
2487.000000, 72.022665
2488.000000, 71.153978
2489.000000, 71.446333
2490.000000, 70.742052
2491.000000, 71.371552
2492.000000, 72.653305
2493.000000, 71.340071
2494.000000, 71.427391
2495.000000, 71.074038
2496.000000, 69.805758
2497.000000, 71.121738
2498.000000, 71.590855
2499.000000, 70.537552
2500.000000, 70.508993