# Wavelength  (nm), Transmission (%)
200.000000, 0.002450
205.000000, 0.000473
210.000000, -0.001230
215.000000, -0.000095
220.000000, 0.000000
225.000000, 0.000096
230.000000, -0.001930
235.000000, -0.003020
240.000000, 0.000000
245.000000, -0.000300
250.000000, -0.001410
255.000000, -0.001110
260.000000, 0.001930
265.000000, 0.018070
270.000000, 0.116480
275.000000, 0.442250
280.000000, 1.231830
285.000000, 2.862930
290.000000, 5.839840
295.000000, 10.650460
300.000000, 17.477910
305.000000, 26.053900
310.000000, 35.646270
315.000000, 45.571730
320.000000, 54.899790
325.000000, 62.892340
330.000000, 69.359490
335.000000, 74.313190
340.000000, 77.873230
345.000000, 80.509760
350.000000, 82.843250
355.000000, 84.920700
360.000000, 86.254990
365.000000, 87.046730
370.000000, 87.505250
375.000000, 87.774380
380.000000, 87.797720
385.000000, 87.541380
390.000000, 86.955080
395.000000, 86.148140
400.000000, 85.367100
405.000000, 84.828330
410.000000, 84.435120
415.000000, 84.030580
420.000000, 83.626990
425.000000, 83.537930
430.000000, 83.823440
435.000000, 84.217210
440.000000, 84.543280
445.000000, 84.757680
450.000000, 84.767040
455.000000, 84.550960
460.000000, 84.409980
465.000000, 84.618390
470.000000, 84.982460
475.000000, 85.272210
480.000000, 85.469620
485.000000, 85.584450
490.000000, 85.794300
495.000000, 85.878340
500.000000, 85.793270
505.000000, 85.742290
510.000000, 85.546160
515.000000, 85.252700
520.000000, 84.985820
525.000000, 84.798990
530.000000, 84.717490
535.000000, 84.766560
540.000000, 85.009200
545.000000, 85.427910
550.000000, 85.788710
555.000000, 85.939610
560.000000, 85.893980
565.000000, 85.743970
570.000000, 85.504020
575.000000, 85.219120
580.000000, 84.842360
585.000000, 84.361620
590.000000, 83.762960
595.000000, 83.062180
600.000000, 82.309660
605.000000, 81.427880
610.000000, 80.422040
615.000000, 79.355940
620.000000, 78.171160
625.000000, 76.907350
630.000000, 75.568270
635.000000, 74.107430
640.000000, 72.562700
645.000000, 70.985650
650.000000, 69.345130
655.000000, 67.655810
660.000000, 65.913510
665.000000, 64.158620
670.000000, 62.352510
675.000000, 60.432810
680.000000, 58.413050
685.000000, 56.305240
690.000000, 54.139310
695.000000, 51.929270
700.000000, 49.710510
705.000000, 47.514470
710.000000, 45.304070
715.000000, 43.098020
720.000000, 40.956540
725.000000, 38.853680
730.000000, 36.761720
735.000000, 34.702760
740.000000, 32.683580
745.000000, 30.701870
750.000000, 28.765990
755.000000, 26.875400
760.000000, 25.046820
765.000000, 23.278780
770.000000, 21.575190
775.000000, 19.942560
780.000000, 18.399690
785.000000, 16.944020
790.000000, 15.561860
795.000000, 14.256620
800.000000, 13.035300
805.000000, 11.900620
810.000000, 10.842270
815.000000, 9.859670
820.000000, 8.946870
825.000000, 8.103720
830.000000, 7.333860
835.000000, 6.630820
840.000000, 5.972220
845.000000, 5.373050
850.000000, 4.830040
855.000000, 4.333090
860.000000, 3.886640
865.000000, 3.510760
870.000000, 3.172110
875.000000, 2.817640
880.000000, 2.474880
885.000000, 2.196590
890.000000, 1.983400
895.000000, 1.807480
900.000000, 1.609000
905.000000, 1.424000
910.000000, 1.274920
915.000000, 1.137680
920.000000, 1.023860
925.000000, 0.920290
930.000000, 0.824820
935.000000, 0.737860
940.000000, 0.671500
945.000000, 0.614850
950.000000, 0.552750
955.000000, 0.485510
960.000000, 0.427560
965.000000, 0.373860
970.000000, 0.334470
975.000000, 0.320930
980.000000, 0.304270
985.000000, 0.275350
990.000000, 0.248630
995.000000, 0.222500
1000.000000, 0.203020
1005.000000, 0.198700
1010.000000, 0.197730
1015.000000, 0.180790
1020.000000, 0.140770
1025.000000, 0.139260
1030.000000, 0.155050
1035.000000, 0.111620
1040.000000, 0.055930
1045.000000, 0.073920
1050.000000, 0.120100
1055.000000, 0.088750
1060.000000, 0.073810
1065.000000, 0.099920
1070.000000, 0.080980
1075.000000, 0.078120
1080.000000, 0.065600
1085.000000, 0.041920
1090.000000, 0.039820
1095.000000, 0.069300
1100.000000, 0.081630
1105.000000, 0.078050
1110.000000, 0.041200
1115.000000, 0.018650
1120.000000, 0.052070
1125.000000, 0.053350
1130.000000, 0.015710
1135.000000, 0.004530
1140.000000, 0.037640
1145.000000, 0.029220
1150.000000, 0.031550
1155.000000, 0.027320
1160.000000, -0.002740
1165.000000, 0.022270
1170.000000, 0.040210
1175.000000, 0.038000
1180.000000, 0.037590
1185.000000, 0.045580
1190.000000, 0.041920
1195.000000, 0.028430
1200.000000, 0.008350
1205.000000, 0.003380
1210.000000, -0.006980
1215.000000, 0.025560
1220.000000, 0.036740
1225.000000, 0.036650
1230.000000, 0.043850
1235.000000, 0.019980
1240.000000, 0.024010
1245.000000, 0.033310
1250.000000, 0.049690
1255.000000, 0.063590
1260.000000, 0.042770
1265.000000, 0.032640
1270.000000, 0.022190
1275.000000, -0.012480
1280.000000, -0.004440
1285.000000, 0.055100
1290.000000, 0.067140
1295.000000, 0.007610
1300.000000, 0.028520
1305.000000, 0.058190
1310.000000, 0.063910
1315.000000, 0.078620
1320.000000, 0.079070
1325.000000, 0.028770
1330.000000, 0.000847
1335.000000, -0.014500
1340.000000, 0.019030
1345.000000, 0.051810
1350.000000, 0.056730
1355.000000, 0.071640
1360.000000, 0.036590
1365.000000, 0.030350
1370.000000, 0.039200
1375.000000, 0.044670
1380.000000, 0.048170
1385.000000, 0.046540
1390.000000, 0.010360
1395.000000, 0.010160
1400.000000, 0.067750
1405.000000, 0.099700
1410.000000, 0.095140
1415.000000, 0.081730
1420.000000, 0.020630
1425.000000, 0.017560
1430.000000, 0.062190
1435.000000, 0.077480
1440.000000, 0.076870
1445.000000, 0.097640
1450.000000, 0.087710
1455.000000, 0.056470
1460.000000, 0.045250
1465.000000, 0.091630
1470.000000, 0.112350
1475.000000, 0.129700
1480.000000, 0.123380
1485.000000, 0.080780
1490.000000, 0.090500
1495.000000, 0.131900
1500.000000, 0.103280
1505.000000, 0.102300
1510.000000, 0.106900
1515.000000, 0.100770
1520.000000, 0.116610
1525.000000, 0.190830
1530.000000, 0.203080
1535.000000, 0.136130
1540.000000, 0.079250
1545.000000, 0.150520
1550.000000, 0.206110
1555.000000, 0.165640
1560.000000, 0.161810
1565.000000, 0.184240
1570.000000, 0.184990
1575.000000, 0.193880
1580.000000, 0.199230
1585.000000, 0.230720
1590.000000, 0.229750
1595.000000, 0.236680
1600.000000, 0.265770
1605.000000, 0.272420
1610.000000, 0.284150
1615.000000, 0.292570
1620.000000, 0.278840
1625.000000, 0.272430
1630.000000, 0.306370
1635.000000, 0.351410
1640.000000, 0.351640
1645.000000, 0.387150
1650.000000, 0.400970
1655.000000, 0.337880
1660.000000, 0.333930
1665.000000, 0.371200
1670.000000, 0.432420
1675.000000, 0.379030
1680.000000, 0.408140
1685.000000, 0.486450
1690.000000, 0.506960
1695.000000, 0.446990
1700.000000, 0.448970
1705.000000, 0.453350
1710.000000, 0.472630
1715.000000, 0.526140
1720.000000, 0.485470
1725.000000, 0.507080
1730.000000, 0.573390
1735.000000, 0.590960
1740.000000, 0.619830
1745.000000, 0.624210
1750.000000, 0.554920
1755.000000, 0.590440
1760.000000, 0.619460
1765.000000, 0.631740
1770.000000, 0.644000
1775.000000, 0.649720
1780.000000, 0.612050
1785.000000, 0.599130
1790.000000, 0.610430
1795.000000, 0.621620
1800.000000, 0.663020
