# Wavelength  (nm), Transmission (%)
200.000000, 0.000110
201.000000, 0.000019
202.000000, 0.000114
203.000000, 0.000083
204.000000, 0.000021
205.000000, 0.000002
206.000000, 0.000095
207.000000, 0.000050
208.000000, 0.000056
209.000000, 0.000114
210.000000, 0.000069
211.000000, 0.000200
212.000000, 0.000193
213.000000, 0.000073
214.000000, 0.000102
215.000000, 0.000164
216.000000, 0.000060
217.000000, 0.000035
218.000000, 0.000035
219.000000, 0.000036
220.000000, 0.000084
221.000000, 0.000097
222.000000, 0.000068
223.000000, 0.000064
224.000000, 0.000066
225.000000, 0.000100
226.000000, 0.000060
227.000000, 0.000172
228.000000, 0.000189
229.000000, 0.000078
230.000000, 0.000081
231.000000, 0.000023
232.000000, 0.000066
233.000000, 0.000112
234.000000, 0.000011
235.000000, 0.000029
236.000000, 0.000039
237.000000, 0.000056
238.000000, 0.000039
239.000000, 0.000037
240.000000, 0.000038
241.000000, 0.000125
242.000000, 0.000082
243.000000, 0.000096
244.000000, 0.000220
245.000000, 0.000034
246.000000, 0.000102
247.000000, 0.000037
248.000000, 0.000162
249.000000, 0.000118
250.000000, 0.000094
251.000000, 0.000055
252.000000, 0.000021
253.000000, 0.000039
254.000000, 0.000085
255.000000, 0.000059
256.000000, 0.000034
257.000000, 0.000104
258.000000, 0.000246
259.000000, 0.000063
260.000000, 0.000152
261.000000, 0.000085
262.000000, 0.000032
263.000000, 0.000335
264.000000, 0.000351
265.000000, 0.000193
266.000000, 0.000118
267.000000, 0.000102
268.000000, 0.000012
269.000000, 0.000095
270.000000, 0.000061
271.000000, 0.000069
272.000000, 0.000216
273.000000, 0.000032
274.000000, 0.000003
275.000000, 0.000159
276.000000, 0.000250
277.000000, 0.000127
278.000000, 0.000021
279.000000, 0.000039
280.000000, 0.000089
281.000000, 0.000087
282.000000, 0.000188
283.000000, 0.000168
284.000000, 0.000062
285.000000, 0.000110
286.000000, 0.000007
287.000000, 0.000018
288.000000, 0.000043
289.000000, 0.000036
290.000000, 0.000067
291.000000, 0.000048
292.000000, 0.000222
293.000000, 0.000144
294.000000, 0.000034
295.000000, 0.000083
296.000000, 0.000018
297.000000, 0.000120
298.000000, 0.000085
299.000000, 0.000021
300.000000, 0.000116
301.000000, 0.000055
302.000000, 0.000057
303.000000, 0.000143
304.000000, 0.000072
305.000000, 0.000050
306.000000, 0.000204
307.000000, 0.000218
308.000000, 0.000318
309.000000, 0.000109
310.000000, 0.000032
311.000000, 0.000012
312.000000, 0.000065
313.000000, 0.000375
314.000000, 0.000313
315.000000, 0.000076
316.000000, 0.000156
317.000000, 0.000221
318.000000, 0.000039
319.000000, 0.000244
320.000000, 0.000553
321.000000, 0.000065
322.000000, 0.000016
323.000000, 0.000144
324.000000, 0.000010
325.000000, 0.000377
326.000000, 0.000071
327.000000, 0.000085
328.000000, 0.000003
329.000000, 0.000264
330.000000, 0.000357
331.000000, 0.000088
332.000000, 0.000044
333.000000, 0.000273
334.000000, 0.000454
335.000000, 0.000244
336.000000, 0.000009
337.000000, 0.000101
338.000000, 0.000103
339.000000, 0.000002
340.000000, 0.000123
341.000000, 0.000166
342.000000, 0.000016
343.000000, 0.000180
344.000000, 0.000127
345.000000, 0.000001
346.000000, 0.000193
347.000000, 0.000002
348.000000, 0.000208
349.000000, 0.000028
350.000000, 0.000199
351.000000, 0.000008
352.000000, 0.000255
353.000000, 0.000180
354.000000, 0.000002
355.000000, 0.000090
356.000000, 0.000073
357.000000, 0.000345
358.000000, 0.000156
359.000000, 0.000119
360.000000, 0.000033
361.000000, 0.000129
362.000000, 0.000059
363.000000, 0.000066
364.000000, 0.000139
365.000000, 0.000148
366.000000, 0.000074
367.000000, 0.000087
368.000000, 0.000175
369.000000, 0.000052
370.000000, 0.000108
371.000000, 0.000070
372.000000, 0.000023
373.000000, 0.000138
374.000000, 0.000181
375.000000, 0.000365
376.000000, 0.000052
377.000000, 0.000140
378.000000, 0.000162
379.000000, 0.000079
380.000000, 0.000301
381.000000, 0.000177
382.000000, 0.000021
383.000000, 0.000286
384.000000, 0.000184
385.000000, 0.000320
386.000000, 0.000210
387.000000, 0.000019
388.000000, 0.000022
389.000000, 0.000103
390.000000, 0.000348
391.000000, 0.000244
392.000000, 0.000095
393.000000, 0.000361
394.000000, 0.000070
395.000000, 0.000031
396.000000, 0.000156
397.000000, 0.000148
398.000000, 0.000242
399.000000, 0.000068
400.000000, 0.000124
401.000000, 0.000116
402.000000, 0.000038
403.000000, 0.000018
404.000000, 0.000174
405.000000, 0.000086
406.000000, 0.000091
407.000000, 0.000331
408.000000, 0.000398
409.000000, 0.000133
410.000000, 0.000005
411.000000, 0.000167
412.000000, 0.000048
413.000000, 0.000142
414.000000, 0.000046
415.000000, 0.000019
416.000000, 0.000157
417.000000, 0.000117
418.000000, 0.000113
419.000000, 0.000220
420.000000, 0.000198
421.000000, 0.000036
422.000000, 0.000070
423.000000, 0.000070
424.000000, 0.000138
425.000000, 0.000084
426.000000, 0.000293
427.000000, 0.000065
428.000000, 0.000060
429.000000, 0.000247
430.000000, 0.000264
431.000000, 0.000171
432.000000, 0.000105
433.000000, 0.000361
434.000000, 0.000288
435.000000, 0.000054
436.000000, 0.000026
437.000000, 0.000152
438.000000, 0.000111
439.000000, 0.000025
440.000000, 0.000099
441.000000, 0.000042
442.000000, 0.000098
443.000000, 0.000175
444.000000, 0.000138
445.000000, 0.000032
446.000000, 0.000074
447.000000, 0.000188
448.000000, 0.000056
449.000000, 0.000054
450.000000, 0.000263
451.000000, 0.000236
452.000000, 0.000084
453.000000, 0.000039
454.000000, 0.000115
455.000000, 0.000362
456.000000, 0.000128
457.000000, 0.000043
458.000000, 0.000027
459.000000, 0.000189
460.000000, 0.000111
461.000000, 0.000006
462.000000, 0.000033
463.000000, 0.000141
464.000000, 0.000045
465.000000, 0.000057
466.000000, 0.000003
467.000000, 0.000030
468.000000, 0.000094
469.000000, 0.000065
470.000000, 0.000062
471.000000, 0.000254
472.000000, 0.000305
473.000000, 0.000085
474.000000, 0.000151
475.000000, 0.000142
476.000000, 0.000185
477.000000, 0.000150
478.000000, 0.000048
479.000000, 0.000106
480.000000, 0.000055
481.000000, 0.000091
482.000000, 0.000038
483.000000, 0.000062
484.000000, 0.000061
485.000000, 0.000059
486.000000, 0.000044
487.000000, 0.000023
488.000000, 0.000150
489.000000, 0.000085
490.000000, 0.000114
491.000000, 0.000091
492.000000, 0.000067
493.000000, 0.000129
494.000000, 0.000069
495.000000, 0.000214
496.000000, 0.000053
497.000000, 0.000081
498.000000, 0.000067
499.000000, 0.000028
500.000000, 0.000042
501.000000, 0.000067
502.000000, 0.000104
503.000000, 0.000090
504.000000, 0.000101
505.000000, 0.000191
506.000000, 0.000138
507.000000, 0.000182
508.000000, 0.000101
509.000000, 0.000044
510.000000, 0.000015
511.000000, 0.000075
512.000000, 0.000150
513.000000, 0.000073
514.000000, 0.000084
515.000000, 0.000070
516.000000, 0.000127
517.000000, 0.000044
518.000000, 0.000090
519.000000, 0.000103
520.000000, 0.000142
521.000000, 0.000063
522.000000, 0.000068
523.000000, 0.000000
524.000000, 0.000090
525.000000, 0.000083
526.000000, 0.000064
527.000000, 0.000178
528.000000, 0.000186
529.000000, 0.000175
530.000000, 0.000025
531.000000, 0.000095
532.000000, 0.000215
533.000000, 0.000052
534.000000, 0.000119
535.000000, 0.000077
536.000000, 0.000213
537.000000, 0.000301
538.000000, 0.000025
539.000000, 0.000021
540.000000, 0.000042
541.000000, 0.000123
542.000000, 0.000040
543.000000, 0.000072
544.000000, 0.000033
545.000000, 0.000155
546.000000, 0.000004
547.000000, 0.000099
548.000000, 0.000093
549.000000, 0.000092
550.000000, 0.000238
551.000000, 0.000004
552.000000, 0.000040
553.000000, 0.000087
554.000000, 0.000042
555.000000, 0.000041
556.000000, 0.000073
557.000000, 0.000155
558.000000, 0.000083
559.000000, 0.000018
560.000000, 0.000004
561.000000, 0.000061
562.000000, 0.000163
563.000000, 0.000031
564.000000, 0.000031
565.000000, 0.000139
566.000000, 0.000043
567.000000, 0.000049
568.000000, 0.000309
569.000000, 0.000005
570.000000, 0.000069
571.000000, 0.000025
572.000000, 0.000223
573.000000, 0.000082
574.000000, 0.000037
575.000000, 0.000061
576.000000, 0.000063
577.000000, 0.000293
578.000000, 0.000052
579.000000, 0.000061
580.000000, 0.000097
581.000000, 0.000202
582.000000, 0.000433
583.000000, 0.000083
584.000000, 0.000154
585.000000, 0.000018
586.000000, 0.000098
587.000000, 0.000125
588.000000, 0.000233
589.000000, 0.000020
590.000000, 0.000021
591.000000, 0.000166
592.000000, 0.000215
593.000000, 0.000463
594.000000, 0.000273
595.000000, 0.000256
596.000000, 0.000323
597.000000, 0.000216
598.000000, 0.000064
599.000000, 0.000062
600.000000, 0.000106
601.000000, 0.000147
602.000000, 0.000069
603.000000, 0.000235
604.000000, 0.000151
605.000000, 0.000067
606.000000, 0.000073
607.000000, 0.000061
608.000000, 0.000084
609.000000, 0.000036
610.000000, 0.000002
611.000000, 0.000079
612.000000, 0.000027
613.000000, 0.000063
614.000000, 0.000187
615.000000, 0.000078
616.000000, 0.000210
617.000000, 0.000116
618.000000, 0.000028
619.000000, 0.000107
620.000000, 0.000343
621.000000, 0.000009
622.000000, 0.000059
623.000000, 0.000046
624.000000, 0.000090
625.000000, 0.000096
626.000000, 0.000107
627.000000, 0.000144
628.000000, 0.000150
629.000000, 0.000010
630.000000, 0.000224
631.000000, 0.000085
632.000000, 0.000129
633.000000, 0.000172
634.000000, 0.000049
635.000000, 0.000108
636.000000, 0.000058
637.000000, 0.000001
638.000000, 0.000242
639.000000, 0.000252
640.000000, 0.000165
641.000000, 0.000168
642.000000, 0.000019
643.000000, 0.000106
644.000000, 0.000014
645.000000, 0.000396
646.000000, 0.000053
647.000000, 0.000277
648.000000, 0.000053
649.000000, 0.000148
650.000000, 0.000055
651.000000, 0.000039
652.000000, 0.000098
653.000000, 0.000103
654.000000, 0.000131
655.000000, 0.000013
656.000000, 0.000010
657.000000, 0.000044
658.000000, 0.000087
659.000000, 0.000063
660.000000, 0.000121
661.000000, 0.000193
662.000000, 0.000090
663.000000, 0.000119
664.000000, 0.000034
665.000000, 0.000043
666.000000, 0.000020
667.000000, 0.000362
668.000000, 0.000096
669.000000, 0.000230
670.000000, 0.000179
671.000000, 0.000083
672.000000, 0.000032
673.000000, 0.000131
674.000000, 0.000178
675.000000, 0.000247
676.000000, 0.000273
677.000000, 0.000152
678.000000, 0.000049
679.000000, 0.000289
680.000000, 0.000173
681.000000, 0.000095
682.000000, 0.000130
683.000000, 0.000146
684.000000, 0.000102
685.000000, 0.000002
686.000000, 0.000373
687.000000, 0.000305
688.000000, 0.000006
689.000000, 0.000464
690.000000, 0.000212
691.000000, 0.000270
692.000000, 0.000316
693.000000, 0.000123
694.000000, 0.000063
695.000000, 0.000318
696.000000, 0.000206
697.000000, 0.000164
698.000000, 0.000198
699.000000, 0.000093
700.000000, 0.000232
701.000000, 0.000030
702.000000, 0.000123
703.000000, 0.000114
704.000000, 0.000086
705.000000, 0.000214
706.000000, 0.000341
707.000000, 0.000299
708.000000, 0.000390
709.000000, 0.000387
710.000000, 0.000250
711.000000, 0.000273
712.000000, 0.000236
713.000000, 0.000382
714.000000, 0.000163
715.000000, 0.000059
716.000000, 0.000539
717.000000, 0.000246
718.000000, 0.000299
719.000000, 0.000114
720.000000, 0.000495
721.000000, 0.000006
722.000000, 0.000390
723.000000, 0.000141
724.000000, 0.000351
725.000000, 0.000201
726.000000, 0.000266
727.000000, 0.000071
728.000000, 0.000390
729.000000, 0.000376
730.000000, 0.000626
731.000000, 0.000127
732.000000, 0.000590
733.000000, 0.000353
734.000000, 0.000413
735.000000, 0.000006
736.000000, 0.000746
737.000000, 0.000504
738.000000, 0.000546
739.000000, 0.000306
740.000000, 0.000349
741.000000, 0.000716
742.000000, 0.000422
743.000000, 0.000297
744.000000, 0.000203
745.000000, 0.000717
746.000000, 0.000401
747.000000, 0.000435
748.000000, 0.000553
749.000000, 0.000055
750.000000, 0.000888
751.000000, 0.000037
752.000000, 0.000447
753.000000, 0.000084
754.000000, 0.000938
755.000000, 0.000570
756.000000, 0.000467
757.000000, 0.000506
758.000000, 0.000130
759.000000, 0.000628
760.000000, 0.000541
761.000000, 0.000491
762.000000, 0.000083
763.000000, 0.000500
764.000000, 0.000382
765.000000, 0.000438
766.000000, 0.000407
767.000000, 0.000126
768.000000, 0.000604
769.000000, 0.000500
770.000000, 0.000625
771.000000, 0.000619
772.000000, 0.000080
773.000000, 0.000803
774.000000, 0.000420
775.000000, 0.000430
776.000000, 0.000351
777.000000, 0.000040
778.000000, 0.000828
779.000000, 0.000598
780.000000, 0.000546
781.000000, 0.000267
782.000000, 0.000070
783.000000, 0.000720
784.000000, 0.000699
785.000000, 0.000495
786.000000, 0.000258
787.000000, 0.000178
788.000000, 0.000818
789.000000, 0.000654
790.000000, 0.000608
791.000000, 0.000600
792.000000, 0.000292
793.000000, 0.000929
794.000000, 0.000451
795.000000, 0.000727
796.000000, 0.000460
797.000000, 0.000105
798.000000, 0.000634
799.000000, 0.000426
800.000000, 0.000661
801.000000, 0.000485
802.000000, 0.000686
803.000000, 0.000502
804.000000, 0.000177
805.000000, 0.000513
806.000000, 0.000486
807.000000, 0.000543
808.000000, 0.000261
809.000000, 0.000202
810.000000, 0.000485
811.000000, 0.000366
812.000000, 0.000262
813.000000, 0.000566
814.000000, 0.000361
815.000000, 0.000598
816.000000, 0.000470
817.000000, 0.000326
818.000000, 0.000857
819.000000, 0.000625
820.000000, 0.000856
821.000000, 0.000378
822.000000, 0.000761
823.000000, 0.000306
824.000000, 0.000186
825.000000, 0.000778
826.000000, 0.000348
827.000000, 0.000512
828.000000, 0.000668
829.000000, 0.000010
830.000000, 0.000673
831.000000, 0.000538
832.000000, 0.000205
833.000000, 0.000043
834.000000, 0.000469
835.000000, 0.000510
836.000000, 0.000964
837.000000, 0.000326
838.000000, 0.000748
839.000000, 0.000752
840.000000, 0.000415
841.000000, 0.000290
842.000000, 0.000825
843.000000, 0.000663
844.000000, 0.000252
845.000000, 0.000753
846.000000, 0.000806
847.000000, 0.000575
848.000000, 0.000574
849.000000, 0.000516
850.000000, 0.000871
851.000000, 0.000999
852.000000, 0.000425
853.000000, 0.000106
854.000000, 0.000399
855.000000, 0.000577
856.000000, 0.000007
857.000000, 0.000385
858.000000, 0.000171
859.000000, 0.000552
860.000000, 0.000625
861.000000, 0.000332
862.000000, 0.000812
863.000000, 0.000007
864.000000, 0.000792
865.000000, 0.000343
866.000000, 0.000351
867.000000, 0.000731
868.000000, 0.000192
869.000000, 0.000922
870.000000, 0.000022
871.000000, 0.000274
872.000000, 0.000054
873.000000, 0.000570
874.000000, 0.000040
875.000000, 0.000620
876.000000, 0.000221
877.000000, 0.000348
878.000000, 0.000673
879.000000, 0.000366
880.000000, 0.000129
881.000000, 0.000631
882.000000, 0.000171
883.000000, 0.000753
884.000000, 0.000321
885.000000, 0.000187
886.000000, 0.000880
887.000000, 0.000832
888.000000, 0.000728
889.000000, 0.000302
890.000000, 0.000313
891.000000, 0.000306
892.000000, 0.000396
893.000000, 0.000001
894.000000, 0.000022
895.000000, 0.000549
896.000000, 0.000619
897.000000, 0.000501
898.000000, 0.000736
899.000000, 0.000404
900.000000, 0.000510
901.000000, 0.000230
902.000000, 0.000028
903.000000, 0.000106
904.000000, 0.000331
905.000000, 0.000981
906.000000, 0.000928
907.000000, 0.000035
908.000000, 0.000096
909.000000, 0.000836
910.000000, 0.000787
911.000000, 0.000729
912.000000, 0.000596
913.000000, 0.000489
914.000000, 0.000365
915.000000, 0.000498
916.000000, 0.000407
917.000000, 0.000355
918.000000, 0.000243
919.000000, 0.000354
920.000000, 0.000267
921.000000, 0.000950
922.000000, 0.000162
923.000000, 0.000014
924.000000, 0.000011
925.000000, 0.000861
926.000000, 0.000869
927.000000, 0.000992
928.000000, 0.000118
929.000000, 0.000697
930.000000, 0.000789
931.000000, 0.000867
932.000000, 0.000640
933.000000, 0.000640
934.000000, 0.000601
935.000000, 0.000585
936.000000, 0.000555
937.000000, 0.000603
938.000000, 0.000545
939.000000, 0.000447
940.000000, 0.000398
941.000000, 0.000396
942.000000, 0.000531
943.000000, 0.000502
944.000000, 0.000420
945.000000, 0.000450
946.000000, 0.000330
947.000000, 0.000372
948.000000, 0.000396
949.000000, 0.000476
950.000000, 0.000571
951.000000, 0.000398
952.000000, 0.000485
953.000000, 0.000337
954.000000, 0.000460
955.000000, 0.000296
956.000000, 0.000445
957.000000, 0.000290
958.000000, 0.000419
959.000000, 0.000354
960.000000, 0.000454
961.000000, 0.000372
962.000000, 0.000398
963.000000, 0.000382
964.000000, 0.000476
965.000000, 0.000627
966.000000, 0.000777
967.000000, 0.000816
968.000000, 0.000017
969.000000, 0.000171
970.000000, 0.000503
971.000000, 0.000699
972.000000, 0.000116
973.000000, 0.000383
974.000000, 0.000703
975.000000, 0.000147
976.000000, 0.000615
977.000000, 0.000034
978.000000, 0.000744
979.000000, 0.000437
980.000000, 0.000334
981.000000, 0.000960
982.000000, 0.000002
983.000000, 0.000854
984.000000, 0.000714
985.000000, 0.000228
986.000000, 0.000244
987.000000, 0.000532
988.000000, 0.000863
989.000000, 0.000683
990.000000, 0.000864
991.000000, 0.000171
992.000000, 0.000969
993.000000, 0.000697
994.000000, 0.000671
995.000000, 0.000850
996.000000, 0.001200
997.000000, 0.041680
998.000000, 0.046120
999.000000, 0.064250
1000.000000, 0.121270
1001.000000, 0.535180
1002.000000, 3.780120
1003.000000, 13.750880
1004.000000, 30.782210
1005.000000, 52.822530
1006.000000, 71.446420
1007.000000, 83.503900
1008.000000, 90.069150
1009.000000, 93.187140
1010.000000, 95.336980
1011.000000, 96.306340
1012.000000, 96.709180
1013.000000, 97.085560
1014.000000, 97.456440
1015.000000, 97.777210
1016.000000, 98.069990
1017.000000, 98.245830
1018.000000, 98.153720
1019.000000, 97.793110
1020.000000, 97.317470
1021.000000, 96.978830
1022.000000, 96.931140
1023.000000, 97.189320
1024.000000, 97.581860
1025.000000, 97.898030
1026.000000, 98.002420
1027.000000, 97.913620
1028.000000, 97.734380
1029.000000, 97.598340
1030.000000, 97.591140
1031.000000, 97.738760
1032.000000, 97.952740
1033.000000, 98.159000
1034.000000, 98.278310
1035.000000, 98.295040
1036.000000, 98.225820
1037.000000, 98.141560
1038.000000, 98.100840
1039.000000, 98.137520
1040.000000, 98.233920
1041.000000, 98.366990
1042.000000, 98.500780
1043.000000, 98.604440
1044.000000, 98.656610
1045.000000, 98.646680
1046.000000, 98.601200
1047.000000, 98.512500
1048.000000, 98.419130
1049.000000, 98.293290
1050.000000, 98.152940
1051.000000, 98.030350
1052.000000, 97.915990
1053.000000, 97.828170
1054.000000, 97.793480
1055.000000, 97.820860
1056.000000, 97.908110
1057.000000, 98.026080
1058.000000, 98.154750
1059.000000, 98.243340
1060.000000, 98.256250
1061.000000, 98.189840
1062.000000, 98.049420
1063.000000, 97.839230
1064.000000, 97.635830
1065.000000, 97.475490
1066.000000, 97.383510
1067.000000, 97.404350
1068.000000, 97.530380
1069.000000, 97.715820
1070.000000, 97.915460
1071.000000, 98.119660
1072.000000, 98.246670
1073.000000, 98.281820
1074.000000, 98.225750
1075.000000, 98.096290
1076.000000, 97.916080
1077.000000, 97.759340
1078.000000, 97.643650
1079.000000, 97.586380
1080.000000, 97.617380
1081.000000, 97.705360
1082.000000, 97.859070
1083.000000, 98.020320
1084.000000, 98.140420
1085.000000, 98.232610
1086.000000, 98.248370
1087.000000, 98.211300
1088.000000, 98.119150
1089.000000, 98.009320
1090.000000, 97.902440
1091.000000, 97.814450
1092.000000, 97.749340
1093.000000, 97.749790
1094.000000, 97.763410
1095.000000, 97.804960
1096.000000, 97.855770
1097.000000, 97.903840
1098.000000, 97.936230
1099.000000, 97.954230
1100.000000, 97.943910
1101.000000, 97.928330
1102.000000, 97.911800
1103.000000, 97.905490
1104.000000, 97.906250
1105.000000, 97.924610
1106.000000, 97.925380
1107.000000, 97.941740
1108.000000, 97.957540
1109.000000, 97.970280
1110.000000, 97.984940
1111.000000, 97.980510
1112.000000, 97.987050
1113.000000, 98.002380
1114.000000, 98.026660
1115.000000, 98.070040
1116.000000, 98.124150
1117.000000, 98.183030
1118.000000, 98.260080
1119.000000, 98.317430
1120.000000, 98.353450
1121.000000, 98.350270
1122.000000, 98.315690
1123.000000, 98.252810
1124.000000, 98.157860
1125.000000, 98.053110
1126.000000, 97.955210
1127.000000, 97.873940
1128.000000, 97.833240
1129.000000, 97.838050
1130.000000, 97.892070
1131.000000, 97.979480
1132.000000, 98.097690
1133.000000, 98.214180
1134.000000, 98.320920
1135.000000, 98.417240
1136.000000, 98.463860
1137.000000, 98.457980
1138.000000, 98.407710
1139.000000, 98.324990
1140.000000, 98.203830
1141.000000, 98.117300
1142.000000, 98.017590
1143.000000, 97.950830
1144.000000, 97.932040
1145.000000, 97.935520
1146.000000, 97.966280
1147.000000, 98.030460
1148.000000, 98.077910
1149.000000, 98.110650
1150.000000, 98.113240
1151.000000, 98.085050
1152.000000, 97.992810
1153.000000, 97.853010
1154.000000, 97.708500
1155.000000, 97.539450
1156.000000, 97.377780
1157.000000, 97.259310
1158.000000, 97.177020
1159.000000, 97.157170
1160.000000, 97.197590
1161.000000, 97.297860
1162.000000, 97.398410
1163.000000, 97.576230
1164.000000, 97.742560
1165.000000, 97.879780
1166.000000, 97.977490
1167.000000, 98.033470
1168.000000, 98.018650
1169.000000, 97.951680
1170.000000, 97.833860
1171.000000, 97.675660
1172.000000, 97.510050
1173.000000, 97.346020
1174.000000, 97.216820
1175.000000, 97.127440
1176.000000, 97.089480
1177.000000, 97.112330
1178.000000, 97.188010
1179.000000, 97.302600
1180.000000, 97.436100
1181.000000, 97.582640
1182.000000, 97.722370
1183.000000, 97.834360
1184.000000, 97.892690
1185.000000, 97.894930
1186.000000, 97.845720
1187.000000, 97.732650
1188.000000, 97.572320
1189.000000, 97.375970
1190.000000, 97.162990
1191.000000, 96.954680
1192.000000, 96.749600
1193.000000, 96.587260
1194.000000, 96.472180
1195.000000, 96.408260
1196.000000, 96.393930
1197.000000, 96.445510
1198.000000, 96.537620
1199.000000, 96.672340
1200.000000, 96.833210
1201.000000, 96.993770
1202.000000, 97.175690
1203.000000, 97.338470
1204.000000, 97.485520
1205.000000, 97.580580
1206.000000, 97.649320
1207.000000, 97.689580
1208.000000, 97.667760
1209.000000, 97.616560
1210.000000, 97.547520
1211.000000, 97.431720
1212.000000, 97.310700
1213.000000, 97.174210
1214.000000, 97.057620
1215.000000, 96.931410
1216.000000, 96.828860
1217.000000, 96.765420
1218.000000, 96.722590
1219.000000, 96.706760
1220.000000, 96.729360
1221.000000, 96.786930
1222.000000, 96.877100
1223.000000, 96.977600
1224.000000, 97.112350
1225.000000, 97.252880
1226.000000, 97.402530
1227.000000, 97.547900
1228.000000, 97.697010
1229.000000, 97.830840
1230.000000, 97.963260
1231.000000, 98.062660
1232.000000, 98.155740
1233.000000, 98.202170
1234.000000, 98.254380
1235.000000, 98.269340
1236.000000, 98.263300
1237.000000, 98.245880
1238.000000, 98.211130
1239.000000, 98.147900
1240.000000, 98.065160
1241.000000, 97.990460
1242.000000, 97.870380
1243.000000, 97.770250
1244.000000, 97.670070
1245.000000, 97.552640
1246.000000, 97.453060
1247.000000, 97.360530
1248.000000, 97.271000
1249.000000, 97.215810
1250.000000, 97.169730
1251.000000, 97.141750
1252.000000, 97.159290
1253.000000, 97.187770
1254.000000, 97.233840
1255.000000, 97.296210
1256.000000, 97.370220
1257.000000, 97.438450
1258.000000, 97.505780
1259.000000, 97.570130
1260.000000, 97.600810
1261.000000, 97.610050
1262.000000, 97.594250
1263.000000, 97.553150
1264.000000, 97.479490
1265.000000, 97.392490
1266.000000, 97.271390
1267.000000, 97.141620
1268.000000, 97.009400
1269.000000, 96.899620
1270.000000, 96.786110
1271.000000, 96.703190
1272.000000, 96.645330
1273.000000, 96.622970
1274.000000, 96.616830
1275.000000, 96.642940
1276.000000, 96.696040
1277.000000, 96.758960
1278.000000, 96.827840
1279.000000, 96.886240
1280.000000, 96.924290
1281.000000, 96.938200
1282.000000, 96.923790
1283.000000, 96.879150
1284.000000, 96.791370
1285.000000, 96.664870
1286.000000, 96.516510
1287.000000, 96.347900
1288.000000, 96.157300
1289.000000, 95.973820
1290.000000, 95.808070
1291.000000, 95.656670
1292.000000, 95.533230
1293.000000, 95.460210
1294.000000, 95.427520
1295.000000, 95.440580
1296.000000, 95.496180
1297.000000, 95.579200
1298.000000, 95.716360
1299.000000, 95.861920
1300.000000, 96.013320
1301.000000, 96.168010
1302.000000, 96.304530
1303.000000, 96.419580
1304.000000, 96.502690
1305.000000, 96.555240
1306.000000, 96.564250
1307.000000, 96.541170
1308.000000, 96.475040
1309.000000, 96.396930
1310.000000, 96.302260
1311.000000, 96.206890
1312.000000, 96.108700
1313.000000, 96.047390
1314.000000, 95.998450
1315.000000, 95.985720
1316.000000, 96.021160
1317.000000, 96.073590
1318.000000, 96.222450
1319.000000, 96.360520
1320.000000, 96.541510
1321.000000, 96.736400
1322.000000, 96.936350
1323.000000, 97.141690
1324.000000, 97.341440
1325.000000, 97.506730
1326.000000, 97.636910
1327.000000, 97.738620
1328.000000, 97.795730
1329.000000, 97.802510
1330.000000, 97.779730
1331.000000, 97.722780
1332.000000, 97.632650
1333.000000, 97.527690
1334.000000, 97.412470
1335.000000, 97.306650
1336.000000, 97.198970
1337.000000, 97.115100
1338.000000, 97.049150
1339.000000, 97.018040
1340.000000, 97.008320
1341.000000, 97.029110
1342.000000, 97.081510
1343.000000, 97.155720
1344.000000, 97.256160
1345.000000, 97.351910
1346.000000, 97.460930
1347.000000, 97.570120
1348.000000, 97.670360
1349.000000, 97.760270
1350.000000, 97.828450
1351.000000, 97.868140
1352.000000, 97.880180
1353.000000, 97.885310
1354.000000, 97.854270
1355.000000, 97.822360
1356.000000, 97.774270
1357.000000, 97.708760
1358.000000, 97.633340
1359.000000, 97.566020
1360.000000, 97.512490
1361.000000, 97.423890
1362.000000, 97.385120
1363.000000, 97.327030
1364.000000, 97.290210
1365.000000, 97.254950
1366.000000, 97.208060
1367.000000, 97.165070
1368.000000, 97.133150
1369.000000, 97.087900
1370.000000, 97.005940
1371.000000, 96.921580
1372.000000, 96.769520
1373.000000, 96.616010
1374.000000, 96.418470
1375.000000, 96.193860
1376.000000, 95.984860
1377.000000, 95.762040
1378.000000, 95.568880
1379.000000, 95.417630
1380.000000, 95.268610
1381.000000, 95.195820
1382.000000, 95.146060
1383.000000, 95.153450
1384.000000, 95.197490
1385.000000, 95.255850
1386.000000, 95.343110
1387.000000, 95.461240
1388.000000, 95.614500
1389.000000, 95.761550
1390.000000, 95.898350
1391.000000, 96.033390
1392.000000, 96.169990
1393.000000, 96.294320
1394.000000, 96.408620
1395.000000, 96.515530
1396.000000, 96.607150
1397.000000, 96.682400
1398.000000, 96.724990
1399.000000, 96.752700
1400.000000, 96.796210
1401.000000, 96.837070
1402.000000, 96.847800
1403.000000, 96.871700
1404.000000, 96.885460
1405.000000, 96.938500
1406.000000, 96.970400
1407.000000, 97.049300
1408.000000, 97.106560
1409.000000, 97.214420
1410.000000, 97.314330
1411.000000, 97.407180
1412.000000, 97.499680
1413.000000, 97.613980
1414.000000, 97.738140
1415.000000, 97.851520
1416.000000, 97.942740
1417.000000, 98.019980
1418.000000, 98.088860
1419.000000, 98.138360
1420.000000, 98.160070
1421.000000, 98.163350
1422.000000, 98.131630
1423.000000, 98.095780
1424.000000, 98.039390
1425.000000, 97.962740
1426.000000, 97.866100
1427.000000, 97.767080
1428.000000, 97.657430
1429.000000, 97.554440
1430.000000, 97.466130
1431.000000, 97.372190
1432.000000, 97.304660
1433.000000, 97.251400
1434.000000, 97.221150
1435.000000, 97.211440
1436.000000, 97.220380
1437.000000, 97.254780
1438.000000, 97.312370
1439.000000, 97.387300
1440.000000, 97.474730
1441.000000, 97.578850
1442.000000, 97.688120
1443.000000, 97.793690
1444.000000, 97.899940
1445.000000, 97.996590
1446.000000, 98.074490
1447.000000, 98.137190
1448.000000, 98.173420
1449.000000, 98.192210
1450.000000, 98.202210
1451.000000, 98.170200
1452.000000, 98.106340
1453.000000, 98.016530
1454.000000, 97.915120
1455.000000, 97.799160
1456.000000, 97.679870
1457.000000, 97.543370
1458.000000, 97.420890
1459.000000, 97.277640
1460.000000, 97.155500
1461.000000, 97.048870
1462.000000, 96.957410
1463.000000, 96.877330
1464.000000, 96.832730
1465.000000, 96.812190
1466.000000, 96.817700
1467.000000, 96.844090
1468.000000, 96.893050
1469.000000, 96.966770
1470.000000, 97.057330
1471.000000, 97.169490
1472.000000, 97.285130
1473.000000, 97.402620
1474.000000, 97.515310
1475.000000, 97.622440
1476.000000, 97.721140
1477.000000, 97.807400
1478.000000, 97.883590
1479.000000, 97.933570
1480.000000, 97.954930
1481.000000, 97.954040
1482.000000, 97.928740
1483.000000, 97.882910
1484.000000, 97.820440
1485.000000, 97.737590
1486.000000, 97.645870
1487.000000, 97.541960
1488.000000, 97.434830
1489.000000, 97.325200
1490.000000, 97.218120
1491.000000, 97.133850
1492.000000, 97.063320
1493.000000, 96.995300
1494.000000, 96.964210
1495.000000, 96.939750
1496.000000, 96.947380
1497.000000, 96.975750
1498.000000, 97.015680
1499.000000, 97.088550
1500.000000, 97.179590
1501.000000, 97.262840
1502.000000, 97.385020
1503.000000, 97.495390
1504.000000, 97.608250
1505.000000, 97.718000
1506.000000, 97.814300
1507.000000, 97.911300
1508.000000, 97.980060
1509.000000, 98.038250
1510.000000, 98.069680
1511.000000, 98.066950
1512.000000, 98.058380
1513.000000, 98.017980
1514.000000, 97.961640
1515.000000, 97.879150
1516.000000, 97.787980
1517.000000, 97.684790
1518.000000, 97.573100
1519.000000, 97.457850
1520.000000, 97.342530
1521.000000, 97.237110
1522.000000, 97.126600
1523.000000, 97.046680
1524.000000, 96.975720
1525.000000, 96.920380
1526.000000, 96.889060
1527.000000, 96.874280
1528.000000, 96.879420
1529.000000, 96.904690
1530.000000, 96.950080
1531.000000, 97.017510
1532.000000, 97.085150
1533.000000, 97.172990
1534.000000, 97.265500
1535.000000, 97.370960
1536.000000, 97.475920
1537.000000, 97.563040
1538.000000, 97.655720
1539.000000, 97.746070
1540.000000, 97.821330
1541.000000, 97.869620
1542.000000, 97.909880
1543.000000, 97.948310
1544.000000, 97.947870
1545.000000, 97.937540
1546.000000, 97.931360
1547.000000, 97.893940
1548.000000, 97.845660
1549.000000, 97.800240
1550.000000, 97.739830
1551.000000, 97.670900
1552.000000, 97.605460
1553.000000, 97.538350
1554.000000, 97.474040
1555.000000, 97.428960
1556.000000, 97.381230
1557.000000, 97.333560
1558.000000, 97.302330
1559.000000, 97.282600
1560.000000, 97.266920
1561.000000, 97.262730
1562.000000, 97.267490
1563.000000, 97.279430
1564.000000, 97.292760
1565.000000, 97.313070
1566.000000, 97.339230
1567.000000, 97.368780
1568.000000, 97.395360
1569.000000, 97.427730
1570.000000, 97.449990
1571.000000, 97.469600
1572.000000, 97.491300
1573.000000, 97.518040
1574.000000, 97.517230
1575.000000, 97.535960
1576.000000, 97.545590
1577.000000, 97.542830
1578.000000, 97.560680
1579.000000, 97.558140
1580.000000, 97.559350
1581.000000, 97.556710
1582.000000, 97.568720
1583.000000, 97.569890
1584.000000, 97.577890
1585.000000, 97.602200
1586.000000, 97.615420
1587.000000, 97.639660
1588.000000, 97.654190
1589.000000, 97.683030
1590.000000, 97.701510
1591.000000, 97.732980
1592.000000, 97.752900
1593.000000, 97.781640
1594.000000, 97.794590
1595.000000, 97.828250
1596.000000, 97.827620
1597.000000, 97.834530
1598.000000, 97.832700
1599.000000, 97.833950
1600.000000, 97.812480
1601.000000, 97.798260
1602.000000, 97.777050
1603.000000, 97.745930
1604.000000, 97.723620
1605.000000, 97.677600
1606.000000, 97.640140
1607.000000, 97.609620
1608.000000, 97.577100
1609.000000, 97.548650
1610.000000, 97.528550
1611.000000, 97.513050
1612.000000, 97.507350
1613.000000, 97.498930
1614.000000, 97.513270
1615.000000, 97.529830
1616.000000, 97.565860
1617.000000, 97.609720
1618.000000, 97.664220
1619.000000, 97.724530
1620.000000, 97.785660
1621.000000, 97.870580
1622.000000, 97.935370
1623.000000, 98.027260
1624.000000, 98.098720
1625.000000, 98.168170
1626.000000, 98.238490
1627.000000, 98.295040
1628.000000, 98.339940
1629.000000, 98.380780
1630.000000, 98.420250
1631.000000, 98.419100
1632.000000, 98.422550
1633.000000, 98.402490
1634.000000, 98.377570
1635.000000, 98.316300
1636.000000, 98.273920
1637.000000, 98.197810
1638.000000, 98.127490
1639.000000, 98.040410
1640.000000, 97.945670
1641.000000, 97.860140
1642.000000, 97.767970
1643.000000, 97.689840
1644.000000, 97.616680
1645.000000, 97.541950
1646.000000, 97.490920
1647.000000, 97.447850
1648.000000, 97.415390
1649.000000, 97.407900
1650.000000, 97.407500
1651.000000, 97.428080
1652.000000, 97.460590
1653.000000, 97.526700
1654.000000, 97.578400
1655.000000, 97.668010
1656.000000, 97.765450
1657.000000, 97.854980
1658.000000, 97.958620
1659.000000, 98.070240
1660.000000, 98.172240
1661.000000, 98.275330
1662.000000, 98.368360
1663.000000, 98.473710
1664.000000, 98.541570
1665.000000, 98.606250
1666.000000, 98.650170
1667.000000, 98.680850
1668.000000, 98.689250
1669.000000, 98.688150
1670.000000, 98.661010
1671.000000, 98.619880
1672.000000, 98.560460
1673.000000, 98.496690
1674.000000, 98.399170
1675.000000, 98.310900
1676.000000, 98.207330
1677.000000, 98.106440
1678.000000, 97.997730
1679.000000, 97.884740
1680.000000, 97.783450
1681.000000, 97.694500
1682.000000, 97.590280
1683.000000, 97.515450
1684.000000, 97.463970
1685.000000, 97.418620
1686.000000, 97.390920
1687.000000, 97.377120
1688.000000, 97.382960
1689.000000, 97.399720
1690.000000, 97.453260
1691.000000, 97.494820
1692.000000, 97.568390
1693.000000, 97.650480
1694.000000, 97.733530
1695.000000, 97.853100
1696.000000, 97.946140
1697.000000, 98.058060
1698.000000, 98.169300
1699.000000, 98.268230
1700.000000, 98.378240
1701.000000, 98.469380
1702.000000, 98.549230
1703.000000, 98.628400
1704.000000, 98.679730
1705.000000, 98.724280
1706.000000, 98.751590
1707.000000, 98.763150
1708.000000, 98.765070
1709.000000, 98.730770
1710.000000, 98.703290
1711.000000, 98.644390
1712.000000, 98.585170
1713.000000, 98.502590
1714.000000, 98.421340
1715.000000, 98.327570
1716.000000, 98.231510
1717.000000, 98.128870
1718.000000, 98.029680
1719.000000, 97.941350
1720.000000, 97.827740
1721.000000, 97.756090
1722.000000, 97.689810
1723.000000, 97.611240
1724.000000, 97.556540
1725.000000, 97.505150
1726.000000, 97.474610
1727.000000, 97.461910
1728.000000, 97.456530
1729.000000, 97.456550
1730.000000, 97.502360
1731.000000, 97.520030
1732.000000, 97.565370
1733.000000, 97.627040
1734.000000, 97.680780
1735.000000, 97.756230
1736.000000, 97.823730
1737.000000, 97.897740
1738.000000, 97.972760
1739.000000, 98.060020
1740.000000, 98.133760
1741.000000, 98.198940
1742.000000, 98.273730
1743.000000, 98.328530
1744.000000, 98.376300
1745.000000, 98.423650
1746.000000, 98.449470
1747.000000, 98.477720
1748.000000, 98.491660
1749.000000, 98.486400
1750.000000, 98.488710
1751.000000, 98.461620
1752.000000, 98.448490
1753.000000, 98.406390
1754.000000, 98.365070
1755.000000, 98.314380
1756.000000, 98.266170
1757.000000, 98.219610
1758.000000, 98.151620
1759.000000, 98.110730
1760.000000, 98.048850
1761.000000, 97.988470
1762.000000, 97.942260
1763.000000, 97.900650
1764.000000, 97.857420
1765.000000, 97.826250
1766.000000, 97.806570
1767.000000, 97.781850
1768.000000, 97.770050
1769.000000, 97.762310
1770.000000, 97.768730
1771.000000, 97.771780
1772.000000, 97.790740
1773.000000, 97.805580
1774.000000, 97.835280
1775.000000, 97.870470
1776.000000, 97.900980
1777.000000, 97.953510
1778.000000, 97.984440
1779.000000, 98.042310
1780.000000, 98.088910
1781.000000, 98.131760
1782.000000, 98.186260
1783.000000, 98.225400
1784.000000, 98.276260
1785.000000, 98.312720
1786.000000, 98.351750
1787.000000, 98.387120
1788.000000, 98.414230
1789.000000, 98.439840
1790.000000, 98.461690
1791.000000, 98.477330
1792.000000, 98.483130
1793.000000, 98.497260
1794.000000, 98.488300
1795.000000, 98.488780
1796.000000, 98.482080
1797.000000, 98.468380
1798.000000, 98.450680
1799.000000, 98.432470
1800.000000, 98.407070
1801.000000, 98.385950
1802.000000, 98.355420
1803.000000, 98.323810
1804.000000, 98.296880
1805.000000, 98.271430
1806.000000, 98.237430
1807.000000, 98.196870
1808.000000, 98.176590
1809.000000, 98.138180
1810.000000, 98.103160
1811.000000, 98.071530
1812.000000, 98.049390
1813.000000, 98.032470
1814.000000, 98.003320
1815.000000, 97.981860
1816.000000, 97.959290
1817.000000, 97.924200
1818.000000, 97.915820
1819.000000, 97.897790
1820.000000, 97.875930
1821.000000, 97.868060
1822.000000, 97.854620
1823.000000, 97.849380
1824.000000, 97.834560
1825.000000, 97.829530
1826.000000, 97.811780
1827.000000, 97.811410
1828.000000, 97.808530
1829.000000, 97.802700
1830.000000, 97.789750
1831.000000, 97.806370
1832.000000, 97.801310
1833.000000, 97.802020
1834.000000, 97.803160
1835.000000, 97.786870
1836.000000, 97.800470
1837.000000, 97.798320
1838.000000, 97.814420
1839.000000, 97.821290
1840.000000, 97.834010
1841.000000, 97.840090
1842.000000, 97.860830
1843.000000, 97.865150
1844.000000, 97.868980
1845.000000, 97.875040
1846.000000, 97.879290
1847.000000, 97.895510
1848.000000, 97.899220
1849.000000, 97.906560
1850.000000, 97.906720
1851.000000, 97.915310
1852.000000, 97.915860
1853.000000, 97.923230
1854.000000, 97.920090
1855.000000, 97.923070
1856.000000, 97.920320
1857.000000, 97.908940
1858.000000, 97.916590
1859.000000, 97.911900
1860.000000, 97.900600
1861.000000, 97.890000
1862.000000, 97.889450
1863.000000, 97.876110
1864.000000, 97.869740
1865.000000, 97.841150
1866.000000, 97.847300
1867.000000, 97.815290
1868.000000, 97.802670
1869.000000, 97.799150
1870.000000, 97.783080
1871.000000, 97.781060
1872.000000, 97.756890
1873.000000, 97.756040
1874.000000, 97.744800
1875.000000, 97.757920
1876.000000, 97.731070
1877.000000, 97.741100
1878.000000, 97.728400
1879.000000, 97.737010
1880.000000, 97.728680
1881.000000, 97.735310
1882.000000, 97.730120
1883.000000, 97.748380
1884.000000, 97.740350
1885.000000, 97.767230
1886.000000, 97.762650
1887.000000, 97.777340
1888.000000, 97.786920
1889.000000, 97.799950
1890.000000, 97.825020
1891.000000, 97.840420
1892.000000, 97.868200
1893.000000, 97.875980
1894.000000, 97.906860
1895.000000, 97.911250
1896.000000, 97.931240
1897.000000, 97.927560
1898.000000, 97.954200
1899.000000, 97.970320
1900.000000, 97.985630
1901.000000, 97.990010
1902.000000, 98.013970
1903.000000, 98.007300
1904.000000, 98.010150
1905.000000, 98.001390
1906.000000, 97.998950
1907.000000, 97.994590
1908.000000, 97.982070
1909.000000, 97.965820
1910.000000, 97.959690
1911.000000, 97.935490
1912.000000, 97.907710
1913.000000, 97.878740
1914.000000, 97.859230
1915.000000, 97.816490
1916.000000, 97.797990
1917.000000, 97.767230
1918.000000, 97.734560
1919.000000, 97.685130
1920.000000, 97.655630
1921.000000, 97.609860
1922.000000, 97.578030
1923.000000, 97.534070
1924.000000, 97.506110
1925.000000, 97.466710
1926.000000, 97.435990
1927.000000, 97.404630
1928.000000, 97.384370
1929.000000, 97.349890
1930.000000, 97.334280
1931.000000, 97.307800
1932.000000, 97.293690
1933.000000, 97.274080
1934.000000, 97.263160
1935.000000, 97.249580
1936.000000, 97.247440
1937.000000, 97.240820
1938.000000, 97.242150
1939.000000, 97.250430
1940.000000, 97.269330
1941.000000, 97.275470
1942.000000, 97.285710
1943.000000, 97.292720
1944.000000, 97.319380
1945.000000, 97.333110
1946.000000, 97.357220
1947.000000, 97.381260
1948.000000, 97.411900
1949.000000, 97.433730
1950.000000, 97.474930
1951.000000, 97.486500
1952.000000, 97.536090
1953.000000, 97.545470
1954.000000, 97.574770
1955.000000, 97.600900
1956.000000, 97.642150
1957.000000, 97.647580
1958.000000, 97.683880
1959.000000, 97.701230
1960.000000, 97.727000
1961.000000, 97.731930
1962.000000, 97.750440
1963.000000, 97.763100
1964.000000, 97.770620
1965.000000, 97.779530
1966.000000, 97.782730
1967.000000, 97.788740
1968.000000, 97.782020
1969.000000, 97.787340
1970.000000, 97.780770
1971.000000, 97.776120
1972.000000, 97.757930
1973.000000, 97.758530
1974.000000, 97.739200
1975.000000, 97.727190
1976.000000, 97.711400
1977.000000, 97.701300
1978.000000, 97.680830
1979.000000, 97.669830
1980.000000, 97.651050
1981.000000, 97.642930
1982.000000, 97.622320
1983.000000, 97.612060
1984.000000, 97.592000
1985.000000, 97.573650
1986.000000, 97.576560
1987.000000, 97.556150
1988.000000, 97.550130
1989.000000, 97.540780
1990.000000, 97.537340
1991.000000, 97.527210
1992.000000, 97.523380
1993.000000, 97.527850
1994.000000, 97.524830
1995.000000, 97.526040
1996.000000, 97.529720
1997.000000, 97.541020
1998.000000, 97.540840
1999.000000, 97.549160
2000.000000, 97.547930
2001.000000, 97.560970
2002.000000, 97.567880
2003.000000, 97.586940
2004.000000, 97.589400
2005.000000, 97.600810
2006.000000, 97.604190
2007.000000, 97.619260
2008.000000, 97.624410
2009.000000, 97.630390
2010.000000, 97.634160
2011.000000, 97.641020
2012.000000, 97.640320
2013.000000, 97.638060
2014.000000, 97.640350
2015.000000, 97.632010
2016.000000, 97.633160
2017.000000, 97.618240
2018.000000, 97.610770
2019.000000, 97.598390
2020.000000, 97.591640
2021.000000, 97.574970
2022.000000, 97.559100
2023.000000, 97.543840
2024.000000, 97.520260
2025.000000, 97.497650
2026.000000, 97.486530
2027.000000, 97.455690
2028.000000, 97.435790
2029.000000, 97.409100
2030.000000, 97.384960
2031.000000, 97.368540
2032.000000, 97.342000
2033.000000, 97.314060
2034.000000, 97.301090
2035.000000, 97.274350
2036.000000, 97.261410
2037.000000, 97.242950
2038.000000, 97.223920
2039.000000, 97.207940
2040.000000, 97.193900
2041.000000, 97.178120
2042.000000, 97.177540
2043.000000, 97.169520
2044.000000, 97.165820
2045.000000, 97.164200
2046.000000, 97.162460
2047.000000, 97.169780
2048.000000, 97.172750
2049.000000, 97.174610
2050.000000, 97.184490
2051.000000, 97.201960
2052.000000, 97.205320
2053.000000, 97.227730
2054.000000, 97.239880
2055.000000, 97.249470
2056.000000, 97.276310
2057.000000, 97.291310
2058.000000, 97.313400
2059.000000, 97.329920
2060.000000, 97.345260
2061.000000, 97.375630
2062.000000, 97.390630
2063.000000, 97.404760
2064.000000, 97.426110
2065.000000, 97.444850
2066.000000, 97.461200
2067.000000, 97.481780
2068.000000, 97.499780
2069.000000, 97.511390
2070.000000, 97.522510
2071.000000, 97.527830
2072.000000, 97.544300
2073.000000, 97.553680
2074.000000, 97.554950
2075.000000, 97.563870
2076.000000, 97.566970
2077.000000, 97.574890
2078.000000, 97.570760
2079.000000, 97.566350
2080.000000, 97.561010
2081.000000, 97.562210
2082.000000, 97.562870
2083.000000, 97.555990
2084.000000, 97.545680
2085.000000, 97.547480
2086.000000, 97.536480
2087.000000, 97.529720
2088.000000, 97.525340
2089.000000, 97.529340
2090.000000, 97.515830
2091.000000, 97.518770
2092.000000, 97.515720
2093.000000, 97.502890
2094.000000, 97.493070
2095.000000, 97.500020
2096.000000, 97.496650
2097.000000, 97.495540
2098.000000, 97.494200
2099.000000, 97.503650
2100.000000, 97.496560
2101.000000, 97.504450
2102.000000, 97.502810
2103.000000, 97.504300
2104.000000, 97.516720
2105.000000, 97.519270
2106.000000, 97.526480
2107.000000, 97.526110
2108.000000, 97.539380
2109.000000, 97.541600
2110.000000, 97.556950
2111.000000, 97.560250
2112.000000, 97.563510
2113.000000, 97.568660
2114.000000, 97.577300
2115.000000, 97.586170
2116.000000, 97.584130
2117.000000, 97.580180
2118.000000, 97.588050
2119.000000, 97.577290
2120.000000, 97.590550
2121.000000, 97.585260
2122.000000, 97.583380
2123.000000, 97.577930
2124.000000, 97.571850
2125.000000, 97.573420
2126.000000, 97.557080
2127.000000, 97.550510
2128.000000, 97.538960
2129.000000, 97.526630
2130.000000, 97.516680
2131.000000, 97.501660
2132.000000, 97.482820
2133.000000, 97.472890
2134.000000, 97.445990
2135.000000, 97.435190
2136.000000, 97.407910
2137.000000, 97.387730
2138.000000, 97.361130
2139.000000, 97.338560
2140.000000, 97.316130
2141.000000, 97.278530
2142.000000, 97.255940
2143.000000, 97.226970
2144.000000, 97.193280
2145.000000, 97.159000
2146.000000, 97.121130
2147.000000, 97.100560
2148.000000, 97.055700
2149.000000, 97.024950
2150.000000, 96.989650
2151.000000, 96.949120
2152.000000, 96.923200
2153.000000, 96.882500
2154.000000, 96.854310
2155.000000, 96.810200
2156.000000, 96.777110
2157.000000, 96.747200
2158.000000, 96.713040
2159.000000, 96.676600
2160.000000, 96.642080
2161.000000, 96.605410
2162.000000, 96.576290
2163.000000, 96.525920
2164.000000, 96.493870
2165.000000, 96.453600
2166.000000, 96.413760
2167.000000, 96.382490
2168.000000, 96.335840
2169.000000, 96.293260
2170.000000, 96.255270
2171.000000, 96.206490
2172.000000, 96.162190
2173.000000, 96.108790
2174.000000, 96.060820
2175.000000, 96.008130
2176.000000, 95.945750
2177.000000, 95.896950
2178.000000, 95.832140
2179.000000, 95.766960
2180.000000, 95.701430
2181.000000, 95.636930
2182.000000, 95.579750
2183.000000, 95.538190
2184.000000, 95.489040
2185.000000, 95.456750
2186.000000, 95.419720
2187.000000, 95.379010
2188.000000, 95.336640
2189.000000, 95.280420
2190.000000, 95.227850
2191.000000, 95.166170
2192.000000, 95.098220
2193.000000, 95.028650
2194.000000, 94.941300
2195.000000, 94.847270
2196.000000, 94.746600
2197.000000, 94.644070
2198.000000, 94.543640
2199.000000, 94.457750
2200.000000, 94.375600
2200.900000, 94.248720
2201.710000, 94.121850
2202.510000, 93.985480
2203.320000, 93.849100
2204.120000, 93.715230
2204.920000, 93.574950
2205.730000, 93.437680
2206.530000, 93.301600
2207.330000, 93.164630
2208.140000, 93.033650
2208.940000, 92.896780
2209.740000, 92.753010
2210.550000, 92.599830
2211.350000, 92.450160
2212.150000, 92.308680
2212.960000, 92.168310
2213.760000, 92.026130
2214.560000, 91.877660
2215.370000, 91.722080
2216.170000, 91.566210
2216.980000, 91.405340
2217.780000, 91.237960
2218.580000, 91.074890
2219.390000, 90.913610
2220.190000, 90.759040
2220.990000, 90.586560
2221.800000, 90.422590
2222.600000, 90.261310
2223.400000, 90.081440
2224.210000, 89.900470
2225.010000, 89.710990
2225.810000, 89.519220
2226.620000, 89.327040
2227.420000, 89.140370
2228.220000, 88.959090
2229.030000, 88.765420
2229.830000, 88.567040
2230.640000, 88.379270
2231.440000, 88.187300
2232.240000, 87.992420
2233.050000, 87.799150
2233.850000, 87.594770
2234.650000, 87.399200
2235.460000, 87.209920
2236.260000, 87.013650
2237.060000, 86.806170
2237.870000, 86.592400
2238.670000, 86.392730
2239.470000, 86.203550
2240.280000, 86.007880
2241.080000, 85.812700
2241.890000, 85.618530
2242.690000, 85.423950
2243.490000, 85.229280
2244.300000, 85.028100
2245.100000, 84.828530
2245.900000, 84.645360
2246.710000, 84.464080
2247.510000, 84.277010
2248.310000, 84.091830
2249.120000, 83.905460
2249.920000, 83.729480
2250.720000, 83.559410
2251.530000, 83.390830
2252.330000, 83.223460
2253.130000, 83.052880
2253.940000, 82.891910
2254.740000, 82.738240
2255.550000, 82.575860
2256.350000, 82.414090
2257.150000, 82.262710
2257.960000, 82.117140
2258.760000, 81.980960
2259.560000, 81.848690
2260.370000, 81.720110
2261.170000, 81.586340
2261.970000, 81.444570
2262.780000, 81.319790
2263.580000, 81.215820
2264.380000, 81.113740
2265.190000, 81.002070
2265.990000, 80.901890
2266.800000, 80.822720
2267.600000, 80.731540
2268.400000, 80.633570
2269.210000, 80.541900
2270.010000, 80.464620
2270.810000, 80.404850
2271.620000, 80.351870
2272.420000, 80.291600
2273.220000, 80.233920
2274.030000, 80.185550
2274.830000, 80.138270
2275.630000, 80.099400
2276.440000, 80.065530
2277.240000, 80.033350
2278.040000, 79.998580
2278.850000, 79.975000
2279.650000, 79.964330
2280.460000, 79.951750
2281.260000, 79.940180
2282.060000, 79.936400
2282.870000, 79.939330
2283.670000, 79.956760
2284.470000, 79.975980
2285.280000, 80.001610
2286.080000, 80.029530
2286.880000, 80.057760
2287.690000, 80.096480
2288.490000, 80.142810
2289.290000, 80.200330
2290.100000, 80.254160
2290.900000, 80.295490
2291.700000, 80.347110
2292.510000, 80.413140
2293.310000, 80.479660
2294.120000, 80.558390
2294.920000, 80.638510
2295.720000, 80.725840
2296.530000, 80.822860
2297.330000, 80.909790
2298.130000, 80.999120
2298.940000, 81.088840
2299.740000, 81.182770
2300.540000, 81.284090
2301.350000, 81.392720
2302.150000, 81.504040
2302.950000, 81.618670
2303.760000, 81.746190
2304.560000, 81.874820
2305.370000, 81.990050
2306.170000, 82.105270
2306.970000, 82.227800
2307.780000, 82.359220
2308.580000, 82.498150
2309.380000, 82.638570
2310.190000, 82.780000
2310.990000, 82.918920
2311.790000, 83.055750
2312.600000, 83.195880
2313.400000, 83.335000
2314.200000, 83.475030
2315.010000, 83.624150
2315.810000, 83.787480
2316.610000, 83.945900
2317.420000, 84.095130
2318.220000, 84.241150
2319.030000, 84.385180
2319.830000, 84.531800
2320.630000, 84.681030
2321.440000, 84.829260
2322.240000, 84.979480
2323.040000, 85.129810
2323.850000, 85.279730
2324.650000, 85.426860
2325.450000, 85.576080
2326.260000, 85.726810
2327.060000, 85.871430
2327.860000, 86.006160
2328.670000, 86.142490
2329.470000, 86.292410
2330.270000, 86.432940
2331.080000, 86.559360
2331.880000, 86.687890
2332.690000, 86.815810
2333.490000, 86.945240
2334.290000, 87.065560
2335.100000, 87.176890
2335.900000, 87.296020
2336.700000, 87.420840
2337.510000, 87.532870
2338.310000, 87.638190
2339.110000, 87.746120
2339.920000, 87.843740
2340.720000, 87.931070
2341.520000, 88.018990
2342.330000, 88.096020
2343.130000, 88.165250
2343.940000, 88.234870
2344.740000, 88.305300
2345.540000, 88.375620
2346.350000, 88.441650
2347.150000, 88.493370
2347.950000, 88.534400
2348.760000, 88.574420
2349.560000, 88.609550
2350.360000, 88.642580
2351.170000, 88.664700
2351.970000, 88.672130
2352.770000, 88.681450
2353.580000, 88.682880
2354.380000, 88.671300
2355.180000, 88.660730
2355.990000, 88.648950
2356.790000, 88.632680
2357.600000, 88.606210
2358.400000, 88.569330
2359.200000, 88.529060
2360.010000, 88.476480
2360.810000, 88.416310
2361.610000, 88.365890
2362.420000, 88.306380
2363.220000, 88.248660
2364.020000, 88.186550
2364.830000, 88.110530
2365.630000, 88.033820
2366.430000, 87.955800
2367.240000, 87.870690
2368.040000, 87.766380
2368.850000, 87.659260
2369.650000, 87.552350
2370.450000, 87.434430
2371.260000, 87.313620
2372.060000, 87.191800
2372.860000, 87.064190
2373.670000, 86.929670
2374.470000, 86.797360
2375.270000, 86.659540
2376.080000, 86.509830
2376.880000, 86.356010
2377.680000, 86.201100
2378.490000, 86.043980
2379.290000, 85.885570
2380.090000, 85.725660
2380.900000, 85.559740
2381.700000, 85.388330
2382.510000, 85.220510
2383.310000, 85.051700
2384.110000, 84.880680
2384.920000, 84.702870
2385.720000, 84.519850
2386.520000, 84.330840
2387.330000, 84.147720
2388.130000, 83.970910
2388.930000, 83.787390
2389.740000, 83.608180
2390.540000, 83.431260
2391.340000, 83.246550
2392.150000, 83.061740
2392.950000, 82.877520
2393.750000, 82.694610
2394.560000, 82.518290
2395.360000, 82.338080
2396.170000, 82.158060
2396.970000, 81.986050
2397.770000, 81.816630
2398.580000, 81.652220
2399.380000, 81.494000
2400.180000, 81.336390
2400.990000, 81.171770
2401.790000, 81.006860
2402.590000, 80.851840
2403.400000, 80.704730
2404.200000, 80.563420
2405.000000, 80.423600
2405.810000, 80.283390
2406.610000, 80.148270
2407.420000, 80.021060
2408.220000, 79.887740
2409.020000, 79.762030
2409.830000, 79.654810
2410.630000, 79.549800
2411.430000, 79.438280
2412.240000, 79.328870
2413.040000, 79.235750
2413.840000, 79.148340
2414.650000, 79.061820
2415.450000, 78.981110
2416.250000, 78.903600
2417.060000, 78.831280
2417.860000, 78.768270
2418.660000, 78.713850
2419.470000, 78.661040
2420.270000, 78.613120
2421.080000, 78.578010
2421.880000, 78.546890
2422.680000, 78.512180
2423.490000, 78.484060
2424.290000, 78.471450
2425.090000, 78.466830
2425.900000, 78.464520
2426.700000, 78.464000
2427.500000, 78.470390
2428.310000, 78.485780
2429.110000, 78.505760
2429.910000, 78.526050
2430.720000, 78.548030
2431.520000, 78.578620
2432.320000, 78.621200
2433.130000, 78.671690
2433.930000, 78.722370
2434.740000, 78.782160
2435.540000, 78.853040
2436.340000, 78.917330
2437.150000, 78.978910
2437.950000, 79.053000
2438.750000, 79.144180
2439.560000, 79.241470
2440.360000, 79.334760
2441.160000, 79.425140
2441.970000, 79.521530
2442.770000, 79.630910
2443.570000, 79.748900
2444.380000, 79.870780
2445.180000, 79.992870
2445.990000, 80.118950
2446.790000, 80.245940
2447.590000, 80.372320
2448.400000, 80.506810
2449.200000, 80.648190
2450.000000, 80.793580
2450.810000, 80.942960
2451.610000, 81.089750
2452.410000, 81.229040
2453.220000, 81.374420
2454.020000, 81.529210
2454.820000, 81.685790
2455.630000, 81.835380
2456.430000, 81.986260
2457.230000, 82.147450
2458.040000, 82.306730
2458.840000, 82.465820
2459.650000, 82.631000
2460.450000, 82.796590
2461.250000, 82.963870
2462.060000, 83.131360
2462.860000, 83.299840
2463.660000, 83.465830
2464.470000, 83.627220
2465.270000, 83.788100
2466.070000, 83.951390
2466.880000, 84.116870
2467.680000, 84.284660
2468.480000, 84.445040
2469.290000, 84.593430
2470.090000, 84.745610
2470.890000, 84.901300
2471.700000, 85.060680
2472.500000, 85.220870
2473.310000, 85.363950
2474.110000, 85.497040
2474.910000, 85.629220
2475.720000, 85.761110
2476.520000, 85.900300
2477.320000, 86.039080
2478.130000, 86.170370
2478.930000, 86.294750
2479.730000, 86.411540
2480.540000, 86.516420
2481.340000, 86.616410
2482.140000, 86.723390
2482.950000, 86.837180
2483.750000, 86.952360
2484.560000, 87.046350
2485.360000, 87.112330
2486.160000, 87.182320
2486.970000, 87.263900
2487.770000, 87.347090
2488.570000, 87.415870
2489.380000, 87.472160
2490.180000, 87.527150
2490.980000, 87.579730
2491.790000, 87.628020
2492.590000, 87.668900
2493.390000, 87.703890
2494.200000, 87.746170
2495.000000, 87.781160
2495.800000, 87.791940
2496.610000, 87.796930
2497.410000, 87.806210
2498.220000, 87.818000
2499.020000, 87.829380
2499.820000, 87.831270
2500.630000, 87.827250
2501.430000, 87.821640
2502.230000, 87.820030
2503.040000, 87.810710
2503.840000, 87.774500
2504.640000, 87.738380
2505.450000, 87.721370
2506.250000, 87.687150
2507.050000, 87.621640
2507.860000, 87.566020
2508.660000, 87.527110
2509.470000, 87.490690
2510.270000, 87.444480
2511.070000, 87.383960
2511.880000, 87.312550
2512.680000, 87.241730
2513.480000, 87.174320
2514.290000, 87.119410
2515.090000, 87.066690
2515.890000, 86.993080
2516.700000, 86.908260
2517.500000, 86.823750
2518.300000, 86.738730
2519.110000, 86.661120
2519.910000, 86.574600
2520.710000, 86.473990
2521.520000, 86.378170
2522.320000, 86.293860
2523.130000, 86.225240
2523.930000, 86.167430
2524.730000, 86.076010
2525.540000, 85.967700
2526.340000, 85.871190
2527.140000, 85.780370
2527.950000, 85.683260
2528.750000, 85.588640
2529.550000, 85.503730
2530.360000, 85.434810
2531.160000, 85.396100
2531.960000, 85.350880
2532.770000, 85.254170
2533.570000, 85.124150
2534.370000, 84.996340
2535.180000, 84.935920
2535.980000, 84.903110
2536.790000, 84.794990
2537.590000, 84.647680
2538.390000, 84.552370
2539.200000, 84.476850
2540.000000, 84.394440
2540.800000, 84.329320
2541.610000, 84.304810
2542.410000, 84.306690
2543.210000, 84.281380
2544.020000, 84.207860
2544.820000, 84.118350
2545.620000, 84.003230
2546.430000, 83.923520
2547.230000, 83.936300
2548.040000, 83.965390
2548.840000, 83.876970
2549.640000, 83.763160
2550.450000, 83.722250
2551.250000, 83.703630
2552.050000, 83.686620
2552.860000, 83.685900
2553.660000, 83.618690
2554.460000, 83.511570
2555.270000, 83.452160
2556.070000, 83.421940
2556.870000, 83.401730
2557.680000, 83.391210
2558.480000, 83.402900
2559.280000, 83.464180
2560.090000, 83.593370
2560.890000, 83.736450
2561.700000, 83.792340
2562.500000, 83.776730
2563.300000, 83.741210
2564.110000, 83.736100
2564.910000, 83.718880
2565.710000, 83.635970
2566.520000, 83.577750
2567.320000, 83.611740
2568.120000, 83.718120
2568.930000, 83.873010
2569.730000, 83.985790
2570.530000, 83.924980
2571.340000, 83.851460
2572.140000, 83.889050
2572.940000, 84.038830
2573.750000, 84.193520
2574.550000, 84.247310
2575.360000, 84.270690
2576.160000, 84.365180
2576.960000, 84.484960
2577.770000, 84.486350
2578.570000, 84.445130
2579.370000, 84.499220
2580.180000, 84.640100
2580.980000, 84.852890
2581.780000, 85.007470
2582.590000, 85.091860
2583.390000, 85.289540
2584.190000, 85.498930
2585.000000, 85.459710
2585.800000, 85.441100
2586.610000, 85.595090
2587.410000, 85.857270
2588.210000, 86.007460
2589.020000, 86.035440
2589.820000, 86.051330
2590.620000, 86.067110
2591.430000, 86.154400
2592.230000, 86.363880
2593.030000, 86.611070
2593.840000, 86.848450
2594.640000, 87.195640
2595.440000, 87.522720
2596.250000, 87.445410
2597.050000, 87.342290
2597.850000, 87.320580
2598.660000, 87.345970
2599.460000, 87.436050
2600.270000, 87.599340
2601.070000, 87.821120
2601.870000, 88.040510
2602.680000, 88.202590
2603.480000, 88.429080
2604.280000, 88.716760
2605.090000, 88.920450
2605.890000, 88.993430
2606.690000, 89.011520
2607.500000, 89.033500
2608.300000, 89.048990
2609.100000, 89.108470
2609.910000, 89.214660
2610.710000, 89.269850
2611.520000, 89.329330
2612.320000, 89.476220
2613.120000, 89.657500
2613.930000, 89.761090
2614.730000, 89.838270
2615.530000, 89.980560
2616.340000, 90.240240
2617.140000, 90.525830
2617.940000, 90.524410
2618.750000, 90.432900
2619.550000, 90.471080
2620.350000, 90.585470
2621.160000, 90.538450
2621.960000, 90.410340
2622.760000, 90.352520
2623.570000, 90.353710
2624.370000, 90.393300
2625.180000, 90.479380
2625.980000, 90.629470
2626.780000, 90.764050
2627.590000, 90.710040
2628.390000, 90.651920
2629.190000, 90.752010
2630.000000, 90.978490
2630.800000, 91.031080
2631.600000, 90.770360
2632.410000, 90.610650
2633.210000, 90.567930
2634.010000, 90.488820
2634.820000, 90.295200
2635.620000, 90.120490
2636.420000, 90.014080
2637.230000, 89.929460
2638.030000, 89.846350
2638.840000, 89.756330
2639.640000, 89.660320
2640.440000, 89.584400
2641.250000, 89.536390
2642.050000, 89.449170
2642.850000, 89.258060
2643.660000, 89.058540
2644.460000, 88.959530
2645.260000, 88.913510
2646.070000, 88.779200
2646.870000, 88.506580
2647.670000, 88.227970
2648.480000, 87.999560
2649.280000, 87.798540
2650.090000, 87.624530
2650.890000, 87.498810
2651.690000, 87.431500
2652.500000, 87.300880
2653.300000, 86.987370
2654.100000, 86.706750
2654.910000, 86.521340
2655.710000, 86.278520
2656.510000, 85.943810
2657.320000, 85.658890
2658.120000, 85.447180
2658.920000, 85.305060
2659.730000, 85.135450
2660.530000, 84.829340
2661.330000, 84.530220
2662.140000, 84.254810
2662.940000, 83.993990
2663.750000, 83.847480
2664.550000, 83.813060
2665.350000, 83.745050
2666.160000, 83.497830
2666.960000, 83.086720
2667.760000, 82.580900
2668.570000, 82.233290
2669.370000, 82.060670
2670.170000, 81.860060
2670.980000, 81.259640
2671.780000, 80.809330
2672.580000, 80.568520
2673.390000, 80.314300
2674.190000, 80.077490
2674.990000, 79.912370
2675.800000, 79.806660
2676.600000, 79.680940
2677.410000, 79.300930
2678.210000, 78.774910
2679.010000, 78.339800
2679.820000, 77.854280
2680.620000, 77.373270
2681.420000, 77.002850
2682.230000, 76.704740
2683.030000, 76.397620
2683.830000, 75.941610
2684.640000, 75.375700
2685.440000, 74.893580
2686.240000, 74.374470
2687.050000, 73.670850
2687.850000, 73.000840
2688.660000, 72.381120
2689.460000, 71.666610
2690.260000, 70.978790
2691.070000, 70.397280
2691.870000, 69.865860
2692.670000, 69.433950
2693.480000, 69.031930
2694.280000, 68.442220
2695.080000, 67.782700
2695.890000, 67.098290
2696.690000, 66.362780
2697.490000, 65.767860
2698.300000, 65.250050
2699.100000, 64.736230
2699.900000, 64.277020
2700.710000, 63.844000
2701.510000, 63.255190
2702.320000, 62.643470
2703.120000, 62.200160
2703.920000, 61.821740
2704.730000, 61.452530
2705.530000, 61.087910
2706.330000, 60.732500
2707.140000, 60.424680
2707.940000, 60.214170
2708.740000, 60.062660
2709.550000, 59.858140
2710.350000, 59.576430
2711.150000, 59.227810
2711.960000, 58.850500
2712.760000, 58.574780
2713.570000, 58.377470
2714.370000, 58.193050
2715.170000, 58.029240
2715.980000, 57.914020
2716.780000, 57.852610
2717.580000, 57.815390
2718.390000, 57.780780
2719.190000, 57.793160
2719.990000, 57.900050
2720.800000, 57.948240
2721.600000, 57.752820
2722.400000, 57.597810
2723.210000, 57.595490
2724.010000, 57.708380
2724.810000, 57.840860
2725.620000, 57.804550
2726.420000, 57.687430
2727.230000, 57.632620
2728.030000, 57.644700
2728.830000, 57.701890
2729.640000, 57.785170
2730.440000, 57.883360
2731.240000, 57.995640
2732.050000, 58.122730
2732.850000, 58.255020
2733.650000, 58.396500
2734.460000, 58.578790
2735.260000, 58.782870
2736.060000, 58.925660
2736.870000, 59.034440
2737.670000, 59.193430
2738.470000, 59.457210
2739.280000, 59.873400
2740.080000, 60.275680
2740.890000, 60.463470
2741.690000, 60.567950
2742.490000, 60.625740
2743.300000, 60.669920
2744.100000, 60.773810
2744.900000, 60.962390
2745.710000, 61.200080
2746.510000, 61.427870
2747.310000, 61.647350
2748.120000, 61.900640
2748.920000, 62.176520
2749.720000, 62.437710
2750.530000, 62.698290
2751.330000, 63.008580
2752.140000, 63.352660
2752.940000, 63.645550
2753.740000, 63.898630
2754.550000, 64.215420
2755.350000, 64.701000
2756.150000, 65.132290
2756.960000, 65.299270
2757.760000, 65.433760
2758.560000, 65.611250
2759.370000, 65.824230
2760.170000, 66.068220
2760.970000, 66.335400
2761.780000, 66.628190
2762.580000, 66.964670
2763.380000, 67.323460
2764.190000, 67.614940
2764.990000, 67.830630
2765.800000, 68.055010
2766.600000, 68.335800
2767.400000, 68.642180
2768.210000, 68.933170
2769.010000, 69.186550
2769.810000, 69.448740
2770.620000, 69.815430
2771.420000, 70.248510
2772.220000, 70.608400
2773.030000, 70.867780
2773.830000, 71.089270
2774.630000, 71.344650
2775.440000, 71.661840
2776.240000, 72.026420
2777.040000, 72.411910
2777.850000, 72.771390
2778.650000, 73.073180
2779.460000, 73.338260
2780.260000, 73.619050
2781.060000, 73.963530
2781.870000, 74.328220
2782.670000, 74.624710
2783.470000, 74.866290
2784.280000, 75.090080
2785.080000, 75.327360
2785.880000, 75.626650
2786.690000, 76.027230
2787.490000, 76.467820
2788.290000, 76.786500
2789.100000, 76.962190
2789.900000, 77.123070
2790.710000, 77.335760
2791.510000, 77.575940
2792.310000, 77.823530
2793.120000, 78.090410
2793.920000, 78.362200
2794.720000, 78.626090
2795.530000, 78.901770
2796.330000, 79.181760
2797.130000, 79.446740
2797.940000, 79.695130
2798.740000, 79.928110
2799.540000, 80.162100
2800.350000, 80.420680
2801.150000, 80.706370
2801.950000, 81.030950
2802.760000, 81.421640
2803.560000, 81.805420
2804.370000, 82.023510
2805.170000, 82.108190
2805.970000, 82.199180
2806.780000, 82.339670
2807.580000, 82.502950
2808.380000, 82.674540
2809.190000, 82.840620
2809.990000, 82.988410
2810.790000, 83.132990
2811.600000, 83.285180
2812.400000, 83.441460
2813.200000, 83.612150
2814.010000, 83.808130
2814.810000, 84.004320
2815.610000, 84.147600
2816.420000, 84.230990
2817.220000, 84.311670
2818.030000, 84.434860
2818.830000, 84.595950
2819.630000, 84.761330
2820.440000, 84.893720
2821.240000, 84.966600
2822.040000, 84.979190
2822.850000, 84.966370
2823.650000, 84.962460
2824.450000, 84.981040
2825.260000, 85.019530
2826.060000, 85.072610
2826.860000, 85.137200
2827.670000, 85.187880
2828.470000, 85.187870
2829.280000, 85.149550
2830.080000, 85.118540
2830.880000, 85.114230
2831.690000, 85.128910
2832.490000, 85.149900
2833.290000, 85.167780
2834.100000, 85.170470
2834.900000, 85.139250
2835.700000, 85.074040
2836.510000, 85.007420
2837.310000, 84.962010
2838.110000, 84.907090
2838.920000, 84.793980
2839.720000, 84.643060
2840.520000, 84.510050
2841.330000, 84.403630
2842.130000, 84.298520
2842.940000, 84.181310
2843.740000, 84.055990
2844.540000, 83.932180
2845.350000, 83.817460
2846.150000, 83.706050
2846.950000, 83.590330
2847.760000, 83.475220
2848.560000, 83.360000
2849.360000, 83.218390
2850.170000, 83.034670
2850.970000, 82.841460
2851.770000, 82.676040
2852.580000, 82.546030
2853.380000, 82.437610
2854.190000, 82.313900
2854.990000, 82.135090
2855.790000, 81.905170
2856.600000, 81.665360
2857.400000, 81.445340
2858.200000, 81.251830
2859.010000, 81.076110
2859.810000, 80.897100
2860.610000, 80.698280
2861.420000, 80.483870
2862.220000, 80.268450
2863.020000, 80.059940
2863.830000, 79.856020
2864.630000, 79.655610
2865.430000, 79.464790
2866.240000, 79.280280
2867.040000, 79.082960
2867.850000, 78.866550
2868.650000, 78.644040
2869.450000, 78.428420
2870.260000, 78.230710
2871.060000, 78.047790
2871.860000, 77.856180
2872.670000, 77.642660
2873.470000, 77.418850
2874.270000, 77.196630
2875.080000, 76.979920
2875.880000, 76.773700
2876.680000, 76.581390
2877.490000, 76.391670
2878.290000, 76.189360
2879.090000, 75.980040
2879.900000, 75.779730
2880.700000, 75.590720
2881.510000, 75.405600
2882.310000, 75.223790
2883.110000, 75.047870
2883.920000, 74.869660
2884.720000, 74.678940
2885.520000, 74.486030
2886.330000, 74.309810
2887.130000, 74.149700
2887.930000, 73.988180
2888.740000, 73.816670
2889.540000, 73.644150
2890.340000, 73.477640
2891.150000, 73.313620
2891.950000, 73.151710
2892.760000, 72.996900
2893.560000, 72.850280
2894.360000, 72.705770
2895.170000, 72.558250
2895.970000, 72.411840
2896.770000, 72.276220
2897.580000, 72.154210
2898.380000, 72.043190
2899.180000, 71.947580
2899.990000, 71.867260
2900.790000, 71.776250
2901.590000, 71.650130
2902.400000, 71.509920
2903.200000, 71.389200
2904.000000, 71.293490
2904.810000, 71.206480
2905.610000, 71.115360
2906.420000, 71.023750
2907.220000, 70.940030
2908.020000, 70.865620
2908.830000, 70.798100
2909.630000, 70.735490
2910.430000, 70.676870
2911.240000, 70.622260
2912.040000, 70.570840
2912.840000, 70.523630
2913.650000, 70.482310
2914.450000, 70.445400
2915.250000, 70.409580
2916.060000, 70.375470
2916.860000, 70.345660
2917.660000, 70.319940
2918.470000, 70.298330
2919.270000, 70.284010
2920.080000, 70.279800
2920.880000, 70.286580
2921.680000, 70.304970
2922.490000, 70.331750
2923.290000, 70.355540
2924.090000, 70.364120
2924.900000, 70.360610
2925.700000, 70.362290
2926.500000, 70.380680
2927.310000, 70.413060
2928.110000, 70.452950
2928.910000, 70.498040
2929.720000, 70.547120
2930.520000, 70.597610
2931.330000, 70.649190
2932.130000, 70.705580
2932.930000, 70.766760
2933.740000, 70.829450
2934.540000, 70.895430
2935.340000, 70.969920
2936.150000, 71.051900
2936.950000, 71.136590
2937.750000, 71.223570
2938.560000, 71.313860
2939.360000, 71.406040
2940.160000, 71.498230
2940.970000, 71.590420
2941.770000, 71.686000
2942.570000, 71.788890
2943.380000, 71.898070
2944.180000, 72.007860
2944.990000, 72.117140
2945.790000, 72.232030
2946.590000, 72.358110
2947.400000, 72.490200
2948.200000, 72.615380
2949.000000, 72.727770
2949.810000, 72.835250
2950.610000, 72.948240
2951.410000, 73.068720
2952.220000, 73.194710
2953.020000, 73.326200
2953.820000, 73.463780
2954.630000, 73.602970
2955.430000, 73.738850
2956.240000, 73.872740
2957.040000, 74.007520
2957.840000, 74.141810
2958.650000, 74.274390
2959.450000, 74.407980
2960.250000, 74.546060
2961.060000, 74.688250
2961.860000, 74.830830
2962.660000, 74.970620
2963.470000, 75.106400
2964.270000, 75.239690
2965.070000, 75.373180
2965.880000, 75.509060
2966.680000, 75.647050
2967.480000, 75.784630
2968.290000, 75.919820
2969.090000, 76.050900
2969.900000, 76.177690
2970.700000, 76.301070
2971.500000, 76.419860
2972.310000, 76.531440
2973.110000, 76.638230
2973.910000, 76.746310
2974.720000, 76.857800
2975.520000, 76.969680
2976.320000, 77.076770
2977.130000, 77.176160
2977.930000, 77.269940
2978.730000, 77.362930
2979.540000, 77.455210
2980.340000, 77.541600
2981.140000, 77.620280
2981.950000, 77.696570
2982.750000, 77.773850
2983.560000, 77.848740
2984.360000, 77.916220
2985.160000, 77.976110
2985.970000, 78.029790
2986.770000, 78.076780
2987.570000, 78.118260
2988.380000, 78.158350
2989.180000, 78.199640
2989.980000, 78.238920
2990.790000, 78.270610
2991.590000, 78.292290
2992.390000, 78.306880
2993.200000, 78.318560
2994.000000, 78.328850
2994.810000, 78.336430
2995.610000, 78.339020
2996.410000, 78.334500
2997.220000, 78.317890
2998.020000, 78.287670
2998.820000, 78.248960
2999.630000, 78.208340
3000.430000, 78.168430
3001.230000, 78.127610
3002.040000, 78.082400
3002.840000, 78.029890
3003.640000, 77.970270
3004.450000, 77.908060
3005.250000, 77.848640
3006.050000, 77.789730
3006.860000, 77.720210
3007.660000, 77.636600
3008.470000, 77.543280
3009.270000, 77.443270
3010.070000, 77.336850
3010.880000, 77.226940
3011.680000, 77.117920
3012.480000, 77.010710
3013.290000, 76.900590
3014.090000, 76.782980
3014.890000, 76.659270
3015.700000, 76.535750
3016.500000, 76.415740
3017.300000, 76.294320
3018.110000, 76.167010
3018.910000, 76.034290
3019.710000, 75.900180
3020.520000, 75.767660
3021.320000, 75.634450
3022.130000, 75.493830
3022.930000, 75.340120
3023.730000, 75.176000
3024.540000, 75.010990
3025.340000, 74.850870
3026.140000, 74.692160
3026.950000, 74.529350
3027.750000, 74.363330
3028.550000, 74.197420
3029.360000, 74.032300
3030.160000, 73.868090
3030.960000, 73.706070
3031.770000, 73.547360
3032.570000, 73.388440
3033.380000, 73.223630
3034.180000, 73.053510
3034.980000, 72.884800
3035.790000, 72.719780
3036.590000, 72.557070
3037.390000, 72.392250
3038.200000, 72.221940
3039.000000, 72.047230
3039.800000, 71.872810
3040.610000, 71.702400
3041.410000, 71.536180
3042.210000, 71.374570
3043.020000, 71.218750
3043.820000, 71.064840
3044.620000, 70.908320
3045.430000, 70.749410
3046.230000, 70.591690
3047.040000, 70.438180
3047.840000, 70.287360
3048.640000, 70.135650
3049.450000, 69.984230
3050.250000, 69.841620
3051.050000, 69.709910
3051.860000, 69.578090
3052.660000, 69.442480
3053.460000, 69.306760
3054.270000, 69.173050
3055.070000, 69.039630
3055.870000, 68.904620
3056.680000, 68.769000
3057.480000, 68.635990
3058.280000, 68.509370
3059.090000, 68.391360
3059.890000, 68.280840
3060.700000, 68.173930
3061.500000, 68.066910
3062.300000, 67.959300
3063.110000, 67.853190
3063.910000, 67.751770
3064.710000, 67.655660
3065.520000, 67.566240
3066.320000, 67.481630
3067.120000, 67.397110
3067.930000, 67.312000
3068.730000, 67.229880
3069.530000, 67.154870
3070.340000, 67.088150
3071.140000, 67.027940
3071.950000, 66.971920
3072.750000, 66.913910
3073.550000, 66.850990
3074.360000, 66.788280
3075.160000, 66.730670
3075.960000, 66.679950
3076.770000, 66.634440
3077.570000, 66.592820
3078.370000, 66.555610
3079.180000, 66.526290
3079.980000, 66.504780
3080.780000, 66.485960
3081.590000, 66.463550
3082.390000, 66.437130
3083.190000, 66.411320
3084.000000, 66.392400
3084.800000, 66.381490
3085.610000, 66.374670
3086.410000, 66.370360
3087.210000, 66.369950
3088.020000, 66.373330
3088.820000, 66.378920
3089.620000, 66.385800
3090.430000, 66.394790
3091.230000, 66.408270
3092.030000, 66.427360
3092.840000, 66.448340
3093.640000, 66.469130
3094.440000, 66.491110
3095.250000, 66.516200
3096.050000, 66.544480
3096.860000, 66.574870
3097.660000, 66.606450
3098.460000, 66.639940
3099.270000, 66.675130
3100.070000, 66.712810
3100.870000, 66.754000
3101.680000, 66.798680
3102.480000, 66.846770
3103.280000, 66.898250
3104.090000, 66.953540
3104.890000, 67.012120
3105.690000, 67.070410
3106.500000, 67.125590
3107.300000, 67.177380
3108.100000, 67.228760
3108.910000, 67.284850
3109.710000, 67.349530
3110.520000, 67.421920
3111.320000, 67.492510
3112.120000, 67.557190
3112.930000, 67.618380
3113.730000, 67.681360
3114.530000, 67.750150
3115.340000, 67.823930
3116.140000, 67.897420
3116.940000, 67.968800
3117.750000, 68.039290
3118.550000, 68.108970
3119.350000, 68.178260
3120.160000, 68.247840
3120.960000, 68.318830
3121.760000, 68.390610
3122.570000, 68.461000
3123.370000, 68.530280
3124.180000, 68.599870
3124.980000, 68.671660
3125.780000, 68.746940
3126.590000, 68.826230
3127.390000, 68.905210
3128.190000, 68.979100
3129.000000, 69.047380
3129.800000, 69.111870
3130.600000, 69.175250
3131.410000, 69.240440
3132.210000, 69.308920
3133.010000, 69.377610
3133.820000, 69.445290
3134.620000, 69.512680
3135.430000, 69.579660
3136.230000, 69.645350
3137.030000, 69.708140
3137.840000, 69.768820
3138.640000, 69.830210
3139.440000, 69.891590
3140.250000, 69.950580
3141.050000, 70.005360
3141.850000, 70.055950
3142.660000, 70.104130
3143.460000, 70.152620
3144.260000, 70.202600
3145.070000, 70.254290
3145.870000, 70.306270
3146.670000, 70.356060
3147.480000, 70.399740
3148.280000, 70.435930
3149.090000, 70.470020
3149.890000, 70.504000
3150.690000, 70.538890
3151.500000, 70.574870
3152.300000, 70.610960
3153.100000, 70.645140
3153.910000, 70.675930
3154.710000, 70.704410
3155.510000, 70.731300
3156.320000, 70.757280
3157.120000, 70.781970
3157.920000, 70.805150
3158.730000, 70.826840
3159.530000, 70.846420
3160.330000, 70.863410
3161.140000, 70.877900
3161.940000, 70.890080
3162.750000, 70.899770
3163.550000, 70.907150
3164.350000, 70.913640
3165.160000, 70.919920
3165.960000, 70.926710
3166.760000, 70.934790
3167.570000, 70.944280
3168.370000, 70.953360
3169.170000, 70.960650
3169.980000, 70.965730
3170.780000, 70.968820
3171.580000, 70.970400
3172.390000, 70.969090
3173.190000, 70.962580
3174.000000, 70.951260
3174.800000, 70.937550
3175.600000, 70.924230
3176.410000, 70.913520
3177.210000, 70.904000
3178.010000, 70.893890
3178.820000, 70.884470
3179.620000, 70.876360
3180.420000, 70.868940
3181.230000, 70.859430
3182.030000, 70.845410
3182.830000, 70.831600
3183.640000, 70.820180
3184.440000, 70.811670
3185.240000, 70.804160
3186.050000, 70.793540
3186.850000, 70.779830
3187.660000, 70.766110
3188.460000, 70.754500
3189.260000, 70.746480
3190.070000, 70.742170
3190.870000, 70.737950
3191.670000, 70.728140
3192.480000, 70.712820
3193.280000, 70.694810
3194.080000, 70.678790
3194.890000, 70.668680
3195.690000, 70.662160
3196.490000, 70.657650
3197.300000, 70.654140
3198.100000, 70.650820
3198.910000, 70.646210
3199.710000, 70.641390
3200.510000, 70.639180
3201.320000, 70.639160
3202.120000, 70.639350
3202.920000, 70.637130
3203.730000, 70.633420
3204.530000, 70.634600
3205.330000, 70.640790
3206.140000, 70.649870
3206.940000, 70.658660
3207.740000, 70.666440
3208.550000, 70.677030
3209.350000, 70.688420
3210.150000, 70.697900
3210.960000, 70.704290
3211.760000, 70.709370
3212.570000, 70.718260
3213.370000, 70.730940
3214.170000, 70.747030
3214.980000, 70.766510
3215.780000, 70.789400
3216.580000, 70.814380
3217.390000, 70.838770
3218.190000, 70.861550
3218.990000, 70.883040
3219.800000, 70.905020
3220.600000, 70.932210
3221.400000, 70.964500
3222.210000, 71.000680
3223.010000, 71.040270
3223.810000, 71.082650
3224.620000, 71.127640
3225.420000, 71.170720
3226.230000, 71.210210
3227.030000, 71.246790
3227.830000, 71.283480
3228.640000, 71.328260
3229.440000, 71.379350
3230.240000, 71.432130
3231.050000, 71.483820
3231.850000, 71.532800
3232.650000, 71.582390
3233.460000, 71.635280
3234.260000, 71.691360
3235.060000, 71.750150
3235.870000, 71.811130
3236.670000, 71.873820
3237.480000, 71.937900
3238.280000, 72.003190
3239.080000, 72.069270
3239.890000, 72.135160
3240.690000, 72.200240
3241.490000, 72.266330
3242.300000, 72.334010
3243.100000, 72.403600
3243.900000, 72.475080
3244.710000, 72.549870
3245.510000, 72.626350
3246.310000, 72.703040
3247.120000, 72.778530
3247.920000, 72.851910
3248.720000, 72.925600
3249.530000, 73.000580
3250.330000, 73.076570
3251.140000, 73.152250
3251.940000, 73.225840
3252.740000, 73.298220
3253.550000, 73.370410
3254.350000, 73.443390
3255.150000, 73.518480
3255.960000, 73.598760
3256.760000, 73.682250
3257.560000, 73.767530
3258.370000, 73.853520
3259.170000, 73.940010
3259.970000, 74.026490
3260.780000, 74.110780
3261.580000, 74.191860
3262.380000, 74.269150
3263.190000, 74.342530
3263.990000, 74.411920
3264.800000, 74.478600
3265.600000, 74.544290
3266.400000, 74.611770
3267.210000, 74.682960
3268.010000, 74.755740
3268.810000, 74.830230
3269.620000, 74.906710
3270.420000, 74.985300
3271.220000, 75.059890
3272.030000, 75.127470
3272.830000, 75.187660
3273.630000, 75.241440
3274.440000, 75.294130
3275.240000, 75.348610
3276.050000, 75.404400
3276.850000, 75.460580
3277.650000, 75.515270
3278.460000, 75.567950
3279.260000, 75.618140
3280.060000, 75.665120
3280.870000, 75.708110
3281.670000, 75.748290
3282.470000, 75.788580
3283.280000, 75.828070
3284.080000, 75.865450
3284.880000, 75.896240
3285.690000, 75.923120
3286.490000, 75.948210
3287.290000, 75.972290
3288.100000, 75.994180
3288.900000, 76.011460
3289.710000, 76.026050
3290.510000, 76.038930
3291.310000, 76.050920
3292.120000, 76.062400
3292.920000, 76.073390
3293.720000, 76.083070
3294.530000, 76.090960
3295.330000, 76.094150
3296.130000, 76.092030
3296.940000, 76.085920
3297.740000, 76.076000
3298.540000, 76.061690
3299.350000, 76.040070
3300.150000, 76.012960
3300.960000, 75.981440
3301.760000, 75.947530
3302.560000, 75.915010
3303.370000, 75.883800
3304.170000, 75.852180
3304.970000, 75.818670
3305.780000, 75.778050
3306.580000, 75.733340
3307.380000, 75.686430
3308.190000, 75.638510
3308.990000, 75.589900
3309.790000, 75.538880
3310.600000, 75.485370
3311.400000, 75.429450
3312.200000, 75.371740
3313.010000, 75.314120
3313.810000, 75.256410
3314.620000, 75.197390
3315.420000, 75.133680
3316.220000, 75.061260
3317.030000, 74.985750
3317.830000, 74.910130
3318.630000, 74.838320
3319.440000, 74.767510
3320.240000, 74.692390
3321.040000, 74.611980
3321.850000, 74.524960
3322.650000, 74.432050
3323.450000, 74.338830
3324.260000, 74.246820
3325.060000, 74.158000
3325.860000, 74.072290
3326.670000, 73.986270
3327.470000, 73.899460
3328.280000, 73.811340
3329.080000, 73.720530
3329.880000, 73.626710
3330.690000, 73.530200
3331.490000, 73.431790
3332.290000, 73.336170
3333.100000, 73.243960
3333.900000, 73.154240
3334.700000, 73.065930
3335.510000, 72.976310
3336.310000, 72.884200
3337.110000, 72.789880
3337.920000, 72.693270
3338.720000, 72.596350
3339.530000, 72.500740
3340.330000, 72.406520
3341.130000, 72.313310
3341.940000, 72.218990
3342.740000, 72.123380
3343.540000, 72.027470
3344.350000, 71.932250
3345.150000, 71.840840
3345.950000, 71.751720
3346.760000, 71.664710
3347.560000, 71.579390
3348.360000, 71.495480
3349.170000, 71.412560
3349.970000, 71.330450
3350.770000, 71.249330
3351.580000, 71.170120
3352.380000, 71.093200
3353.190000, 71.018690
3353.990000, 70.946770
3354.790000, 70.875160
3355.600000, 70.803950
3356.400000, 70.733630
3357.200000, 70.666320
3358.010000, 70.602000
3358.810000, 70.539890
3359.610000, 70.479670
3360.420000, 70.421760
3361.220000, 70.364340
3362.020000, 70.307230
3362.830000, 70.250010
3363.630000, 70.195800
3364.430000, 70.145580
3365.240000, 70.098770
3366.040000, 70.055350
3366.850000, 70.014640
3367.650000, 69.975520
3368.450000, 69.938010
3369.260000, 69.902900
3370.060000, 69.870780
3370.860000, 69.840970
3371.670000, 69.813450
3372.470000, 69.789940
3373.270000, 69.770820
3374.080000, 69.755310
3374.880000, 69.743390
3375.680000, 69.735880
3376.490000, 69.730760
3377.290000, 69.727650
3378.100000, 69.726630
3378.900000, 69.728320
3379.700000, 69.732100
3380.510000, 69.738090
3381.310000, 69.746980
3382.110000, 69.758960
3382.920000, 69.773950
3383.720000, 69.792330
3384.520000, 69.816820
3385.330000, 69.845600
3386.130000, 69.877290
3386.930000, 69.911570
3387.740000, 69.948160
3388.540000, 69.986840
3389.340000, 70.027630
3390.150000, 70.071310
3390.950000, 70.116400
3391.760000, 70.162380
3392.560000, 70.209370
3393.360000, 70.259860
3394.170000, 70.314640
3394.970000, 70.373430
3395.770000, 70.436710
3396.580000, 70.503600
3397.380000, 70.571880
3398.180000, 70.641370
3398.990000, 70.713050
3399.790000, 70.787340
3400.590000, 70.864020
3401.400000, 70.943410
3402.200000, 71.027490
3403.000000, 71.114180
3403.810000, 71.202960
3404.610000, 71.293250
3405.420000, 71.383840
3406.220000, 71.475120
3407.020000, 71.567610
3407.830000, 71.665590
3408.630000, 71.767380
3409.430000, 71.872160
3410.240000, 71.979250
3411.040000, 72.087530
3411.840000, 72.197220
3412.650000, 72.308400
3413.450000, 72.421790
3414.250000, 72.536070
3415.060000, 72.651360
3415.860000, 72.768440
3416.670000, 72.888630
3417.470000, 73.010520
3418.270000, 73.134000
3419.080000, 73.257890
3419.880000, 73.382170
3420.680000, 73.507260
3421.490000, 73.634240
3422.290000, 73.763230
3423.090000, 73.892910
3423.900000, 74.022900
3424.700000, 74.153880
3425.500000, 74.286270
3426.310000, 74.419550
3427.110000, 74.553640
3427.910000, 74.687020
3428.720000, 74.819810
3429.520000, 74.952000
3430.330000, 75.083580
3431.130000, 75.214770
3431.930000, 75.345850
3432.740000, 75.477140
3433.540000, 75.607320
3434.340000, 75.735510
3435.150000, 75.860590
3435.950000, 75.981780
3436.750000, 76.102260
3437.560000, 76.222250
3438.360000, 76.342730
3439.160000, 76.462720
3439.970000, 76.582200
3440.770000, 76.700590
3441.580000, 76.816780
3442.380000, 76.930560
3443.180000, 77.041450
3443.990000, 77.147830
3444.790000, 77.252320
3445.590000, 77.355300
3446.400000, 77.456190
3447.200000, 77.554770
3448.000000, 77.651160
3448.810000, 77.744140
3449.610000, 77.833230
3450.410000, 77.920210
3451.220000, 78.005100
3452.020000, 78.085880
3452.820000, 78.163070
3453.630000, 78.236360
3454.430000, 78.303940
3455.240000, 78.367530
3456.040000, 78.427810
3456.840000, 78.483800
3457.650000, 78.533980
3458.450000, 78.580570
3459.250000, 78.623550
3460.060000, 78.661340
3460.860000, 78.695720
3461.660000, 78.726610
3462.470000, 78.751590
3463.270000, 78.773980
3464.070000, 78.794160
3464.880000, 78.811850
3465.680000, 78.825140
3466.480000, 78.834220
3467.290000, 78.837410
3468.090000, 78.831690
3468.900000, 78.820880
3469.700000, 78.805160
3470.500000, 78.782650
3471.310000, 78.756530
3472.110000, 78.726720
3472.910000, 78.689900
3473.720000, 78.648190
3474.520000, 78.602770
3475.320000, 78.552960
3476.130000, 78.498940
3476.930000, 78.441330
3477.730000, 78.379120
3478.540000, 78.310600
3479.340000, 78.237690
3480.150000, 78.159670
3480.950000, 78.071760
3481.750000, 77.978040
3482.560000, 77.878930
3483.360000, 77.773310
3484.160000, 77.665600
3484.970000, 77.555980
3485.770000, 77.443070
3486.570000, 77.326250
3487.380000, 77.206340
3488.180000, 77.081420
3488.980000, 76.952110
3489.790000, 76.819900
3490.590000, 76.684080
3491.390000, 76.543470
3492.200000, 76.399150
3493.000000, 76.249940
3493.810000, 76.093420
3494.610000, 75.934410
3495.410000, 75.773190
3496.220000, 75.610180
3497.020000, 75.444260
3497.820000, 75.275150
3498.630000, 75.098130
3499.430000, 74.918720
3500.230000, 74.737600
3501.040000, 74.556190
3501.840000, 74.372970
3502.640000, 74.187860
3503.450000, 73.997950
3504.250000, 73.804730
3505.050000, 73.609620
3505.860000, 73.413200
3506.660000, 73.216290
3507.470000, 73.019170
3508.270000, 72.821760
3509.070000, 72.623340
3509.880000, 72.424130
3510.680000, 72.223410
3511.480000, 72.019300
3512.290000, 71.813180
3513.090000, 71.604270
3513.890000, 71.393550
3514.700000, 71.183240
3515.500000, 70.973830
3516.300000, 70.766710
3517.110000, 70.560200
3517.910000, 70.354280
3518.720000, 70.147070
3519.520000, 69.938950
3520.320000, 69.729840
3521.130000, 69.519420
3521.930000, 69.309110
3522.730000, 69.098990
3523.540000, 68.891780
3524.340000, 68.686960
3525.140000, 68.484550
3525.950000, 68.284330
3526.750000, 68.083220
3527.550000, 67.881110
3528.360000, 67.676790
3529.160000, 67.472980
3529.960000, 67.269860
3530.770000, 67.070250
3531.570000, 66.873730
3532.380000, 66.679920
3533.180000, 66.491500
3533.980000, 66.305490
3534.790000, 66.121370
3535.590000, 65.938860
3536.390000, 65.756640
3537.200000, 65.574830
3538.000000, 65.394010
3538.800000, 65.215000
3539.610000, 65.037690
3540.410000, 64.865670
3541.210000, 64.695860
3542.020000, 64.528140
3542.820000, 64.362330
3543.630000, 64.198710
3544.430000, 64.037100
3545.230000, 63.881280
3546.040000, 63.727970
3546.840000, 63.576950
3547.640000, 63.429040
3548.450000, 63.283620
3549.250000, 63.140910
3550.050000, 63.004790
3550.860000, 62.870880
3551.660000, 62.739470
3552.460000, 62.610050
3553.270000, 62.482040
3554.070000, 62.355920
3554.870000, 62.235610
3555.680000, 62.118590
3556.480000, 62.005480
3557.290000, 61.897460
3558.090000, 61.792050
3558.890000, 61.689730
3559.700000, 61.590920
3560.500000, 61.494000
3561.300000, 61.399390
3562.110000, 61.308570
3562.910000, 61.220460
3563.710000, 61.136550
3564.520000, 61.057130
3565.320000, 60.980420
3566.120000, 60.907800
3566.930000, 60.837890
3567.730000, 60.769870
3568.530000, 60.704660
3569.340000, 60.643540
3570.140000, 60.585430
3570.950000, 60.534110
3571.750000, 60.486900
3572.550000, 60.442680
3573.360000, 60.402470
3574.160000, 60.364250
3574.960000, 60.327640
3575.770000, 60.293730
3576.570000, 60.261210
3577.370000, 60.230200
3578.180000, 60.204880
3578.980000, 60.183570
3579.780000, 60.167450
3580.590000, 60.159240
3581.390000, 60.154520
3582.200000, 60.154110
3583.000000, 60.157290
3583.800000, 60.161980
3584.610000, 60.168360
3585.410000, 60.175550
3586.210000, 60.183530
3587.020000, 60.193720
3587.820000, 60.207610
3588.620000, 60.224290
3589.430000, 60.247480
3590.230000, 60.273760
3591.030000, 60.302650
3591.840000, 60.335830
3592.640000, 60.370920
3593.440000, 60.408300
3594.250000, 60.450290
3595.050000, 60.494370
3595.860000, 60.541660
3596.660000, 60.591640
3597.460000, 60.643130
3598.270000, 60.697410
3599.070000, 60.755400
3599.870000, 60.815790
3600.680000, 60.880370
3601.480000, 60.946860
3602.280000, 61.014740
3603.090000, 61.085530
3603.890000, 61.157910
3604.690000, 61.232200
3605.500000, 61.309880
3606.300000, 61.388970
3607.100000, 61.470050
3607.910000, 61.552740
3608.710000, 61.636420
3609.520000, 61.722110
3610.320000, 61.809890
3611.120000, 61.899180
3611.930000, 61.992270
3612.730000, 62.087250
3613.530000, 62.183940
3614.340000, 62.282820
3615.140000, 62.382610
3615.940000, 62.483690
3616.750000, 62.586680
3617.550000, 62.690360
3618.350000, 62.794950
3619.160000, 62.900130
3619.960000, 63.005720
3620.770000, 63.112800
3621.570000, 63.220990
3622.370000, 63.330170
3623.180000, 63.441260
3623.980000, 63.553440
3624.780000, 63.667030
3625.590000, 63.782320
3626.390000, 63.898200
3627.190000, 64.014590
3628.000000, 64.129770
3628.800000, 64.244160
3629.600000, 64.356140
3630.410000, 64.468030
3631.210000, 64.579610
3632.010000, 64.693000
3632.820000, 64.807080
3633.620000, 64.922270
3634.430000, 65.036050
3635.230000, 65.148740
3636.030000, 65.258120
3636.840000, 65.366310
3637.640000, 65.473800
3638.440000, 65.582280
3639.250000, 65.690570
3640.050000, 65.798550
3640.850000, 65.903140
3641.660000, 66.006020
3642.460000, 66.105710
3643.260000, 66.204790
3644.070000, 66.303380
3644.870000, 66.401760
3645.670000, 66.498850
3646.480000, 66.594030
3647.280000, 66.684720
3648.090000, 66.773500
3648.890000, 66.859390
3649.690000, 66.944280
3650.500000, 67.028560
3651.300000, 67.111050
3652.100000, 67.191830
3652.910000, 67.270520
3653.710000, 67.344000
3654.510000, 67.414690
3655.320000, 67.479870
3656.120000, 67.540660
3656.920000, 67.598740
3657.730000, 67.652730
3658.530000, 67.705910
3659.340000, 67.758100
3660.140000, 67.808680
3660.940000, 67.857970
3661.750000, 67.903360
3662.550000, 67.943540
3663.350000, 67.980430
3664.160000, 68.008810
3664.960000, 68.034700
3665.760000, 68.056880
3666.570000, 68.075970
3667.370000, 68.093650
3668.170000, 68.108340
3668.980000, 68.120320
3669.780000, 68.130210
3670.580000, 68.132190
3671.390000, 68.130480
3672.190000, 68.121860
3673.000000, 68.108150
3673.800000, 68.091840
3674.600000, 68.071520
3675.410000, 68.048810
3676.210000, 68.023290
3677.010000, 67.991980
3677.820000, 67.958260
3678.620000, 67.919650
3679.420000, 67.877930
3680.230000, 67.834220
3681.030000, 67.785600
3681.830000, 67.734390
3682.640000, 67.678670
3683.440000, 67.616460
3684.250000, 67.550940
3685.050000, 67.477730
3685.850000, 67.402120
3686.660000, 67.323600
3687.460000, 67.242590
3688.260000, 67.160270
3689.070000, 67.075060
3689.870000, 66.986140
3690.670000, 66.894730
3691.480000, 66.796710
3692.280000, 66.696500
3693.080000, 66.591980
3693.890000, 66.483770
3694.690000, 66.373350
3695.490000, 66.257740
3696.300000, 66.140420
3697.100000, 66.020310
3697.910000, 65.897400
3698.710000, 65.772980
3699.510000, 65.644970
3700.320000, 65.514750
3701.120000, 65.381940
3701.920000, 65.245420
3702.730000, 65.107510
3703.530000, 64.966890
3704.330000, 64.824980
3705.140000, 64.681760
3705.940000, 64.535650
3706.740000, 64.388230
3707.550000, 64.238220
3708.350000, 64.086600
3709.150000, 63.933790
3709.960000, 63.778580
3710.760000, 63.622260
3711.570000, 63.463850
3712.370000, 63.303830
3713.170000, 63.143020
3713.980000, 62.981200
3714.780000, 62.819390
3715.580000, 62.657570
3716.390000, 62.495260
3717.190000, 62.332640
3717.990000, 62.166830
3718.800000, 61.999710
3719.600000, 61.830200
3720.400000, 61.660880
3721.210000, 61.491670
3722.010000, 61.325060
3722.820000, 61.158840
3723.620000, 60.993130
3724.420000, 60.826610
3725.230000, 60.659700
3726.030000, 60.491980
3726.830000, 60.324270
3727.640000, 60.156350
3728.440000, 59.988540
3729.240000, 59.820720
3730.050000, 59.653510
3730.850000, 59.487190
3731.650000, 59.322080
3732.460000, 59.159260
3733.260000, 58.997550
3734.060000, 58.838240
3734.870000, 58.679120
3735.670000, 58.520210
3736.480000, 58.360890
3737.280000, 58.201480
3738.080000, 58.044260
3738.890000, 57.888150
3739.690000, 57.734630
3740.490000, 57.582420
3741.300000, 57.431000
3742.100000, 57.281390
3742.900000, 57.132870
3743.710000, 56.986960
3744.510000, 56.842940
3745.310000, 56.700230
3746.120000, 56.558810
3746.920000, 56.418200
3747.720000, 56.279190
3748.530000, 56.142470
3749.330000, 56.007560
3750.140000, 55.876240
3750.940000, 55.745830
3751.740000, 55.617310
3752.550000, 55.489700
3753.350000, 55.362780
3754.150000, 55.238270
3754.960000, 55.114950
3755.760000, 54.996140
3756.560000, 54.879720
3757.370000, 54.766310
3758.170000, 54.656090
3758.970000, 54.547280
3759.780000, 54.442470
3760.580000, 54.339150
3761.390000, 54.238840
3762.190000, 54.140620
3762.990000, 54.043610
3763.800000, 53.948790
3764.600000, 53.854580
3765.400000, 53.762060
3766.210000, 53.671150
3767.010000, 53.581830
3767.810000, 53.495720
3768.620000, 53.410700
3769.420000, 53.328890
3770.220000, 53.248470
3771.030000, 53.170160
3771.830000, 53.095150
3772.630000, 53.021530
3773.440000, 52.953120
3774.240000, 52.886100
3775.050000, 52.822290
3775.850000, 52.759970
3776.650000, 52.698860
3777.460000, 52.638840
3778.260000, 52.579430
3779.060000, 52.522210
3779.870000, 52.467800
3780.670000, 52.416680
3781.470000, 52.371070
3782.280000, 52.327450
3783.080000, 52.288540
3783.880000, 52.250330
3784.690000, 52.213510
3785.490000, 52.178200
3786.300000, 52.143980
3787.100000, 52.114170
3787.900000, 52.085650
3788.710000, 52.061540
3789.510000, 52.038720
3790.310000, 52.017510
3791.120000, 51.997690
3791.920000, 51.978480
3792.720000, 51.962760
3793.530000, 51.948250
3794.330000, 51.936830
3795.130000, 51.926920
3795.940000, 51.918210
3796.740000, 51.911190
3797.540000, 51.904880
3798.350000, 51.901660
3799.150000, 51.899850
3799.960000, 51.900630
3800.760000, 51.903420
3801.560000, 51.907500
3802.370000, 51.913890
3803.170000, 51.920970
3803.970000, 51.930460
3804.780000, 51.941340
3805.580000, 51.954330
3806.380000, 51.969510
3807.190000, 51.985900
3807.990000, 52.002700
3808.790000, 52.020400
3809.600000, 52.040500
3810.400000, 52.061700
3811.200000, 52.084400
3812.010000, 52.108600
3812.810000, 52.133400
3813.620000, 52.161100
3814.420000, 52.189800
3815.220000, 52.221800
3816.030000, 52.255500
3816.830000, 52.291100
3817.630000, 52.327800
3818.440000, 52.364800
3819.240000, 52.401700
3820.040000, 52.438600
3820.850000, 52.475800
3821.650000, 52.514100
3822.450000, 52.553500
3823.260000, 52.595700
3824.060000, 52.639100
3824.870000, 52.686700
3825.670000, 52.735000
3826.470000, 52.785600
3827.280000, 52.836400
3828.080000, 52.887700
3828.880000, 52.938800
3829.690000, 52.989900
3830.490000, 53.041200
3831.290000, 53.092600
3832.100000, 53.145100
3832.900000, 53.198300
3833.700000, 53.252600
3834.510000, 53.307600
3835.310000, 53.363000
3836.110000, 53.420200
3836.920000, 53.478100
3837.720000, 53.539300
3838.530000, 53.601400
3839.330000, 53.665200
3840.130000, 53.728400
3840.940000, 53.791300
3841.740000, 53.852600
3842.540000, 53.913500
3843.350000, 53.974300
3844.150000, 54.035400
3844.950000, 54.097500
3845.760000, 54.160700
3846.560000, 54.225000
3847.360000, 54.290600
3848.170000, 54.356600
3848.970000, 54.422500
3849.770000, 54.488100
3850.580000, 54.552200
3851.380000, 54.615900
3852.190000, 54.678900
3852.990000, 54.742100
3853.790000, 54.805700
3854.600000, 54.869900
3855.400000, 54.934200
3856.200000, 54.998500
3857.010000, 55.062600
3857.810000, 55.126400
3858.610000, 55.189600
3859.420000, 55.252200
3860.220000, 55.313400
3861.020000, 55.373800
3861.830000, 55.433800
3862.630000, 55.493800
3863.440000, 55.555000
3864.240000, 55.616100
3865.040000, 55.677000
3865.850000, 55.736500
3866.650000, 55.794800
3867.450000, 55.850700
3868.260000, 55.905800
3869.060000, 55.958700
3869.860000, 56.011200
3870.670000, 56.062800
3871.470000, 56.114100
3872.270000, 56.165000
3873.080000, 56.215000
3873.880000, 56.264300
3874.680000, 56.312100
3875.490000, 56.359400
3876.290000, 56.405200
3877.100000, 56.450400
3877.900000, 56.493600
3878.700000, 56.535600
3879.510000, 56.575500
3880.310000, 56.614100
3881.110000, 56.651600
3881.920000, 56.688800
3882.720000, 56.725800
3883.520000, 56.762300
3884.330000, 56.798500
3885.130000, 56.832500
3885.930000, 56.865300
3886.740000, 56.895400
3887.540000, 56.923400
3888.350000, 56.949300
3889.150000, 56.972600
3889.950000, 56.994500
3890.760000, 57.013800
3891.560000, 57.032600
3892.360000, 57.050400
3893.170000, 57.068000
3893.970000, 57.084800
3894.770000, 57.100600
3895.580000, 57.114700
3896.380000, 57.126800
3897.180000, 57.137600
3897.990000, 57.146300
3898.790000, 57.154400
3899.590000, 57.159800
3900.400000, 57.164600
3901.200000, 57.166600
3902.010000, 57.167900
3902.810000, 57.167700
3903.610000, 57.166800
3904.420000, 57.165100
3905.220000, 57.161600
3906.020000, 57.156900
3906.830000, 57.148700
3907.630000, 57.139600
3908.430000, 57.127600
3909.240000, 57.115200
3910.040000, 57.101600
3910.840000, 57.087100
3911.650000, 57.070400
3912.450000, 57.051500
3913.250000, 57.030200
3914.060000, 57.007100
3914.860000, 56.982800
3915.670000, 56.958100
3916.470000, 56.933300
3917.270000, 56.907700
3918.080000, 56.881800
3918.880000, 56.853000
3919.680000, 56.823000
3920.490000, 56.789600
3921.290000, 56.755000
3922.090000, 56.718600
3922.900000, 56.681500
3923.700000, 56.643900
3924.500000, 56.605900
3925.310000, 56.567700
3926.110000, 56.528800
3926.920000, 56.489700
3927.720000, 56.448900
3928.520000, 56.407500
3929.330000, 56.363400
3930.130000, 56.318400
3930.930000, 56.271400
3931.740000, 56.223700
3932.540000, 56.175200
3933.340000, 56.125900
3934.150000, 56.076100
3934.950000, 56.025100
3935.750000, 55.973800
3936.560000, 55.921500
3937.360000, 55.869000
3938.160000, 55.816000
3938.970000, 55.762800
3939.770000, 55.708900
3940.580000, 55.654700
3941.380000, 55.599800
3942.180000, 55.544500
3942.990000, 55.488500
3943.790000, 55.431900
3944.590000, 55.374800
3945.400000, 55.316600
3946.200000, 55.258000
3947.000000, 55.198000
3947.810000, 55.137800
3948.610000, 55.076300
3949.410000, 55.014700
3950.220000, 54.952000
3951.020000, 54.889100
3951.820000, 54.825600
3952.630000, 54.762300
3953.430000, 54.699200
3954.240000, 54.637000
3955.040000, 54.575500
3955.840000, 54.514500
3956.650000, 54.453600
3957.450000, 54.391600
3958.250000, 54.329200
3959.060000, 54.264500
3959.860000, 54.199400
3960.660000, 54.133100
3961.470000, 54.067000
3962.270000, 54.001800
3963.070000, 53.937300
3963.880000, 53.874700
3964.680000, 53.812500
3965.490000, 53.751000
3966.290000, 53.689200
3967.090000, 53.626800
3967.900000, 53.563800
3968.700000, 53.500200
3969.500000, 53.436800
3970.310000, 53.373300
3971.110000, 53.310100
3971.910000, 53.247100
3972.720000, 53.184500
3973.520000, 53.122100
3974.320000, 53.060200
3975.130000, 52.998300
3975.930000, 52.936700
3976.730000, 52.875000
3977.540000, 52.813100
3978.340000, 52.751400
3979.150000, 52.689900
3979.950000, 52.628900
3980.750000, 52.568600
3981.560000, 52.509300
3982.360000, 52.451000
3983.160000, 52.393700
3983.970000, 52.337100
3984.770000, 52.280300
3985.570000, 52.223500
3986.380000, 52.165300
3987.180000, 52.106800
3987.980000, 52.047700
3988.790000, 51.988500
3989.590000, 51.930800
3990.390000, 51.873400
3991.200000, 51.818000
3992.000000, 51.762900
3992.810000, 51.709300
3993.610000, 51.655900
3994.410000, 51.603200
3995.220000, 51.550500
3996.020000, 51.497800
3996.820000, 51.444800
3997.630000, 51.391600
3998.430000, 51.338600
3999.230000, 51.285900
4000.040000, 51.233900
4000.840000, 51.182500
4001.640000, 51.131900
4002.450000, 51.081800
4003.250000, 51.032500
4004.060000, 50.983500
4004.860000, 50.935200
4005.660000, 50.887200
4006.470000, 50.840000
4007.270000, 50.792800
4008.070000, 50.745700
4008.880000, 50.698600
4009.680000, 50.651300
4010.480000, 50.604000
4011.290000, 50.557400
4012.090000, 50.511000
4012.890000, 50.466100
4013.700000, 50.421600
4014.500000, 50.378200
4015.300000, 50.334800
4016.110000, 50.291300
4016.910000, 50.247400
4017.720000, 50.203100
4018.520000, 50.158800
4019.320000, 50.114600
4020.130000, 50.071000
4020.930000, 50.027900
4021.730000, 49.985000
4022.540000, 49.942200
4023.340000, 49.899100
4024.140000, 49.855900
4024.950000, 49.813400
4025.750000, 49.771400
4026.550000, 49.731500
4027.360000, 49.692500
4028.160000, 49.655000
4028.970000, 49.618000
4029.770000, 49.580400
4030.570000, 49.542700
4031.380000, 49.504000
4032.180000, 49.465100
4032.980000, 49.426300
4033.790000, 49.387600
4034.590000, 49.349300
4035.390000, 49.311000
4036.200000, 49.272400
4037.000000, 49.233700
4037.800000, 49.194400
4038.610000, 49.155100
4039.410000, 49.116300
4040.210000, 49.077700
4041.020000, 49.040300
4041.820000, 49.003100
4042.630000, 48.966300
4043.430000, 48.929400
4044.230000, 48.891500
4045.040000, 48.853300
4045.840000, 48.813600
4046.640000, 48.773900
4047.450000, 48.733900
4048.250000, 48.694000
4049.050000, 48.654600
4049.860000, 48.615300
4050.660000, 48.576200
4051.460000, 48.537000
4052.270000, 48.497900
4053.070000, 48.458900
4053.870000, 48.420000
4054.680000, 48.381100
4055.480000, 48.342100
4056.290000, 48.303000
4057.090000, 48.263600
4057.890000, 48.223900
4058.700000, 48.183900
4059.500000, 48.143400
4060.300000, 48.102600
4061.110000, 48.061400
4061.910000, 48.020100
4062.710000, 47.978800
4063.520000, 47.937400
4064.320000, 47.895800
4065.120000, 47.854100
4065.930000, 47.811700
4066.730000, 47.768800
4067.540000, 47.725300
4068.340000, 47.681300
4069.140000, 47.636400
4069.950000, 47.591000
4070.750000, 47.544200
4071.550000, 47.496800
4072.360000, 47.448200
4073.160000, 47.399000
4073.960000, 47.349600
4074.770000, 47.300200
4075.570000, 47.251700
4076.370000, 47.203600
4077.180000, 47.155900
4077.980000, 47.108400
4078.780000, 47.059800
4079.590000, 47.010800
4080.390000, 46.959800
4081.200000, 46.908100
4082.000000, 46.854600
4082.800000, 46.800400
4083.610000, 46.745100
4084.410000, 46.689300
4085.210000, 46.633300
4086.020000, 46.577100
4086.820000, 46.520800
4087.620000, 46.464500
4088.430000, 46.407400
4089.230000, 46.349900
4090.030000, 46.291000
4090.840000, 46.231400
4091.640000, 46.170400
4092.440000, 46.108700
4093.250000, 46.045500
4094.050000, 45.981600
4094.860000, 45.916800
4095.660000, 45.851600
4096.460000, 45.786300
4097.270000, 45.720900
4098.070000, 45.655300
4098.870000, 45.589400
4099.680000, 45.522600
4100.480000, 45.455200
4101.280000, 45.386400
4102.090000, 45.316800
4102.890000, 45.245700
4103.690000, 45.173500
4104.500000, 45.100200
4105.300000, 45.026000
4106.110000, 44.951400
4106.910000, 44.876400
4107.710000, 44.801000
4108.520000, 44.725100
4109.320000, 44.648400
4110.120000, 44.570700
4110.930000, 44.492100
4111.730000, 44.412500
4112.530000, 44.332000
4113.340000, 44.250400
4114.140000, 44.168100
4114.940000, 44.084900
4115.750000, 44.001400
4116.550000, 43.917400
4117.350000, 43.833100
4118.160000, 43.748300
4118.960000, 43.662900
4119.770000, 43.575800
4120.570000, 43.487900
4121.370000, 43.397700
4122.180000, 43.307100
4122.980000, 43.214900
4123.780000, 43.122800
4124.590000, 43.030600
4125.390000, 42.938500
4126.190000, 42.846900
4127.000000, 42.755200
4127.800000, 42.663300
4128.600000, 42.571300
4129.410000, 42.478300
4130.210000, 42.385300
4131.020000, 42.290900
4131.820000, 42.196500
4132.620000, 42.100700
4133.430000, 42.004900
4134.230000, 41.907800
4135.030000, 41.810600
4135.840000, 41.712000
4136.640000, 41.613100
4137.440000, 41.512900
4138.250000, 41.412500
4139.050000, 41.311400
4139.850000, 41.210200
4140.660000, 41.108600
4141.460000, 41.006900
4142.260000, 40.904600
4143.070000, 40.802000
4143.870000, 40.698800
4144.680000, 40.595300
4145.480000, 40.491700
4146.280000, 40.388100
4147.090000, 40.284300
4147.890000, 40.180500
4148.690000, 40.076600
4149.500000, 39.972400
4150.300000, 39.868300
4151.100000, 39.764300
4151.910000, 39.660800
4152.710000, 39.558200
4153.510000, 39.455800
4154.320000, 39.353700
4155.120000, 39.251400
4155.920000, 39.147400
4156.730000, 39.043300
4157.530000, 38.937200
4158.340000, 38.831200
4159.140000, 38.726200
4159.940000, 38.621200
4160.750000, 38.519000
4161.550000, 38.417000
4162.350000, 38.315500
4163.160000, 38.214100
4163.960000, 38.111000
4164.760000, 38.007300
4165.570000, 37.902900
4166.370000, 37.798200
4167.170000, 37.694500
4167.980000, 37.591500
4168.780000, 37.489400
4169.590000, 37.388400
4170.390000, 37.287700
4171.190000, 37.187700
4172.000000, 37.087800
4172.800000, 36.988300
4173.600000, 36.888800
4174.410000, 36.789100
4175.210000, 36.689400
4176.010000, 36.588800
4176.820000, 36.488300
4177.620000, 36.387800
4178.420000, 36.287300
4179.230000, 36.188900
4180.030000, 36.090500
4180.830000, 35.995300
4181.640000, 35.900600
4182.440000, 35.808200
4183.250000, 35.716600
4184.050000, 35.626600
4184.850000, 35.537300
4185.660000, 35.450000
4186.460000, 35.364200
4187.260000, 35.280700
4188.070000, 35.199800
4188.870000, 35.121200
4189.670000, 35.047000
4190.480000, 34.975200
4191.280000, 34.910700
4192.080000, 34.848100
4192.890000, 34.796300
4193.690000, 34.745000
4194.490000, 34.706200
4195.300000, 34.667300
4196.100000, 34.638200
4196.910000, 34.609800
4197.710000, 34.586900
4198.510000, 34.565200
4199.320000, 34.545600
4200.120000, 34.527000
4200.920000, 34.509200
4201.730000, 34.492200
4202.530000, 34.476800
4203.330000, 34.463500
4204.140000, 34.452700
4204.940000, 34.446700
4205.740000, 34.442600
4206.550000, 34.445100
4207.350000, 34.448400
4208.160000, 34.458600
4208.960000, 34.468900
4209.760000, 34.487600
4210.570000, 34.506600
4211.370000, 34.533400
4212.170000, 34.561500
4212.980000, 34.594000
4213.780000, 34.628200
4214.580000, 34.664400
4215.390000, 34.702000
4216.190000, 34.740600
4216.990000, 34.780200
4217.800000, 34.819200
4218.600000, 34.856800
4219.400000, 34.893500
4220.210000, 34.925900
4221.010000, 34.958300
4221.820000, 34.988300
4222.620000, 35.018400
4223.420000, 35.049400
4224.230000, 35.080500
4225.030000, 35.110300
4225.830000, 35.139800
4226.640000, 35.161200
4227.440000, 35.177800
4228.240000, 35.181500
4229.050000, 35.171400
4229.850000, 35.151000
4230.650000, 35.110300
4231.460000, 35.066200
4232.260000, 35.007300
4233.060000, 34.948500
4233.870000, 34.892400
4234.670000, 34.836300
4235.480000, 34.781700
4236.280000, 34.727400
4237.080000, 34.652700
4237.890000, 34.570600
4238.690000, 34.466900
4239.490000, 34.347600
4240.300000, 34.219200
4241.100000, 34.078700
4241.900000, 33.930600
4242.710000, 33.761300
4243.510000, 33.587500
4244.310000, 33.374900
4245.120000, 33.162400
4245.920000, 32.931500
4246.730000, 32.699700
4247.530000, 32.474400
4248.330000, 32.251000
4249.140000, 32.027600
4249.940000, 31.804100
4250.740000, 31.574800
4251.550000, 31.338000
4252.350000, 31.099900
4253.150000, 30.857900
4253.960000, 30.618900
4254.760000, 30.404000
4255.560000, 30.189200
4256.370000, 30.040300
4257.170000, 29.895700
4257.970000, 29.820300
4258.780000, 29.766200
4259.580000, 29.755900
4260.390000, 29.776200
4261.190000, 29.806700
4261.990000, 29.851700
4262.800000, 29.890000
4263.600000, 29.906000
4264.400000, 29.919800
4265.210000, 29.890400
4266.010000, 29.860900
4266.810000, 29.803300
4267.620000, 29.741300
4268.420000, 29.662100
4269.220000, 29.574800
4270.030000, 29.472100
4270.830000, 29.353800
4271.640000, 29.227100
4272.440000, 29.081400
4273.240000, 28.935500
4274.050000, 28.786900
4274.850000, 28.638400
4275.650000, 28.514900
4276.460000, 28.393500
4277.260000, 28.295700
4278.060000, 28.206700
4278.870000, 28.121200
4279.670000, 28.038800
4280.470000, 27.953300
4281.280000, 27.861600
4282.080000, 27.770500
4282.880000, 27.682300
4283.690000, 27.594200
4284.490000, 27.515200
4285.300000, 27.436800
4286.100000, 27.358800
4286.900000, 27.281000
4287.710000, 27.200800
4288.510000, 27.118500
4289.310000, 27.035600
4290.120000, 26.951400
4290.920000, 26.867000
4291.720000, 26.781100
4292.530000, 26.695300
4293.330000, 26.604200
4294.130000, 26.512600
4294.940000, 26.415100
4295.740000, 26.315100
4296.540000, 26.211900
4297.350000, 26.105200
4298.150000, 25.997900
4298.960000, 25.888700
4299.760000, 25.779600
4300.560000, 25.670300
4301.370000, 25.561100
4302.170000, 25.451000
4302.970000, 25.340800
4303.780000, 25.230600
4304.580000, 25.120400
4305.380000, 25.009800
4306.190000, 24.898600
4306.990000, 24.786200
4307.790000, 24.667300
4308.600000, 24.548300
4309.400000, 24.421000
4310.210000, 24.293000
4311.010000, 24.164800
4311.810000, 24.036600
4312.620000, 23.911400
4313.420000, 23.789900
4314.220000, 23.669700
4315.030000, 23.553900
4315.830000, 23.438100
4316.630000, 23.326700
4317.440000, 23.215400
4318.240000, 23.110600
4319.040000, 23.007800
4319.850000, 22.910400
4320.650000, 22.817900
4321.450000, 22.726800
4322.260000, 22.639200
4323.060000, 22.551700
4323.870000, 22.463800
4324.670000, 22.375900
4325.470000, 22.285400
4326.280000, 22.194100
4327.080000, 22.100700
4327.880000, 22.005400
4328.690000, 21.909600
4329.490000, 21.812700
4330.290000, 21.715800
4331.100000, 21.618900
4331.900000, 21.522000
4332.700000, 21.425000
4333.510000, 21.328000
4334.310000, 21.230900
4335.110000, 21.133800
4335.920000, 21.037200
4336.720000, 20.942000
4337.530000, 20.847000
4338.330000, 20.757300
4339.130000, 20.667600
4339.940000, 20.583600
4340.740000, 20.501200
4341.540000, 20.421400
4342.350000, 20.343700
4343.150000, 20.266600
4343.950000, 20.190600
4344.760000, 20.114700
4345.560000, 20.038400
4346.360000, 19.962300
4347.170000, 19.885200
4347.970000, 19.807900
4348.780000, 19.731000
4349.580000, 19.654600
4350.380000, 19.578800
4351.190000, 19.505400
4351.990000, 19.432100
4352.790000, 19.360700
4353.600000, 19.289400
4354.400000, 19.218800
4355.200000, 19.148500
4356.010000, 19.079100
4356.810000, 19.011000
4357.610000, 18.943200
4358.420000, 18.877400
4359.220000, 18.811600
4360.020000, 18.745900
4360.830000, 18.680200
4361.630000, 18.614400
4362.440000, 18.548500
4363.240000, 18.483100
4364.040000, 18.419100
4364.850000, 18.355000
4365.650000, 18.293200
4366.450000, 18.231500
4367.260000, 18.170800
4368.060000, 18.110500
4368.860000, 18.050700
4369.670000, 17.991500
4370.470000, 17.932500
4371.270000, 17.874200
4372.080000, 17.815900
4372.880000, 17.757500
4373.690000, 17.699100
4374.490000, 17.641100
4375.290000, 17.583600
4376.100000, 17.526900
4376.900000, 17.473300
4377.700000, 17.419700
4378.510000, 17.371100
4379.310000, 17.322900
4380.110000, 17.277300
4380.920000, 17.233400
4381.720000, 17.190100
4382.520000, 17.148400
4383.330000, 17.106800
4384.130000, 17.066400
4384.930000, 17.026000
4385.740000, 16.986100
4386.540000, 16.946400
4387.350000, 16.906900
4388.150000, 16.867800
4388.950000, 16.828700
4389.760000, 16.790300
4390.560000, 16.751900
4391.360000, 16.714100
4392.170000, 16.676400
4392.970000, 16.639200
4393.770000, 16.602500
4394.580000, 16.566000
4395.380000, 16.530800
4396.180000, 16.495600
4396.990000, 16.462000
4397.790000, 16.428700
4398.590000, 16.396100
4399.400000, 16.364300
4400.200000, 16.332500
4401.010000, 16.300800
4401.810000, 16.269100
4402.610000, 16.237300
4403.420000, 16.205300
4404.220000, 16.174000
4405.020000, 16.143100
4405.830000, 16.112600
4406.630000, 16.083500
4407.430000, 16.054400
4408.240000, 16.026500
4409.040000, 15.998700
4409.840000, 15.972000
4410.650000, 15.946000
4411.450000, 15.920500
4412.260000, 15.896400
4413.060000, 15.872200
4413.860000, 15.848200
4414.670000, 15.824200
4415.470000, 15.799800
4416.270000, 15.775200
4417.080000, 15.750700
4417.880000, 15.727000
4418.680000, 15.703200
4419.490000, 15.681400
4420.290000, 15.659800
4421.090000, 15.639500
4421.900000, 15.620300
4422.700000, 15.601400
4423.500000, 15.584500
4424.310000, 15.567600
4425.110000, 15.551700
4425.920000, 15.536200
4426.720000, 15.520800
4427.520000, 15.505500
4428.330000, 15.490400
4429.130000, 15.476000
4429.930000, 15.461600
4430.740000, 15.448700
4431.540000, 15.436200
4432.340000, 15.424300
4433.150000, 15.413300
4433.950000, 15.402300
4434.750000, 15.392200
4435.560000, 15.382000
4436.360000, 15.372500
4437.160000, 15.363300
4437.970000, 15.354400
4438.770000, 15.346400
4439.580000, 15.338400
4440.380000, 15.331700
4441.180000, 15.325000
4441.990000, 15.319300
4442.790000, 15.314200
4443.590000, 15.309600
4444.400000, 15.306300
4445.200000, 15.303000
4446.000000, 15.300900
4446.810000, 15.298900
4447.610000, 15.297400
4448.410000, 15.296300
4449.220000, 15.295300
4450.020000, 15.294600
4450.830000, 15.293900
4451.630000, 15.293800
4452.430000, 15.293800
4453.240000, 15.294500
4454.040000, 15.296500
4454.840000, 15.298500
4455.650000, 15.303300
4456.450000, 15.308200
4457.250000, 15.314200
4458.060000, 15.321100
4458.860000, 15.327900
4459.660000, 15.335100
4460.470000, 15.342200
4461.270000, 15.349600
4462.070000, 15.357000
4462.880000, 15.365000
4463.680000, 15.373800
4464.490000, 15.382700
4465.290000, 15.393100
4466.090000, 15.403500
4466.900000, 15.414400
4467.700000, 15.425700
4468.500000, 15.437100
4469.310000, 15.449000
4470.110000, 15.460800
4470.910000, 15.473400
4471.720000, 15.486200
4472.520000, 15.499300
4473.320000, 15.513000
4474.130000, 15.526800
4474.930000, 15.541400
4475.730000, 15.556000
4476.540000, 15.571100
4477.340000, 15.586500
4478.150000, 15.602200
4478.950000, 15.618500
4479.750000, 15.634800
4480.560000, 15.652100
4481.360000, 15.669600
4482.160000, 15.687700
4482.970000, 15.706600
4483.770000, 15.725500
4484.570000, 15.745500
4485.380000, 15.765500
4486.180000, 15.785800
4486.980000, 15.806400
4487.790000, 15.827000
4488.590000, 15.847900
4489.400000, 15.868800
4490.200000, 15.890100
4491.000000, 15.911600
4491.810000, 15.933200
4492.610000, 15.954800
4493.410000, 15.976300
4494.220000, 15.997200
4495.020000, 16.018000
4495.820000, 16.038600
4496.630000, 16.059000
4497.430000, 16.079500
4498.230000, 16.100800
4499.040000, 16.122000
4499.840000, 16.144400
4500.640000, 16.167300
4501.450000, 16.190600
4502.250000, 16.215000
4503.060000, 16.239300
4503.860000, 16.264000
4504.660000, 16.288800
4505.470000, 16.313600
4506.270000, 16.338200
4507.070000, 16.362900
4507.880000, 16.387600
4508.680000, 16.412400
4509.480000, 16.437300
4510.290000, 16.462300
4511.090000, 16.487300
4511.890000, 16.512100
4512.700000, 16.536900
4513.500000, 16.561500
4514.310000, 16.586200
4515.110000, 16.610800
4515.910000, 16.635800
4516.720000, 16.660700
4517.520000, 16.685600
4518.320000, 16.710400
4519.130000, 16.734900
4519.930000, 16.758400
4520.730000, 16.781900
4521.540000, 16.803900
4522.340000, 16.825500
4523.140000, 16.846800
4523.950000, 16.867400
4524.750000, 16.887900
4525.550000, 16.908900
4526.360000, 16.930000
4527.160000, 16.951600
4527.970000, 16.973800
4528.770000, 16.996000
4529.570000, 17.018900
4530.380000, 17.041700
4531.180000, 17.064600
4531.980000, 17.087400
4532.790000, 17.110100
4533.590000, 17.132400
4534.390000, 17.154700
4535.200000, 17.176300
4536.000000, 17.197300
4536.800000, 17.218200
4537.610000, 17.237600
4538.410000, 17.256900
4539.210000, 17.275400
4540.020000, 17.293400
4540.820000, 17.311300
4541.630000, 17.328700
4542.430000, 17.346000
4543.230000, 17.363400
4544.040000, 17.380800
4544.840000, 17.398300
4545.640000, 17.416200
4546.450000, 17.434000
4547.250000, 17.451600
4548.050000, 17.469200
4548.860000, 17.486200
4549.660000, 17.501700
4550.460000, 17.517300
4551.270000, 17.531100
4552.070000, 17.544400
4552.880000, 17.557300
4553.680000, 17.569300
4554.480000, 17.581200
4555.290000, 17.592600
4556.090000, 17.603800
4556.890000, 17.614900
4557.700000, 17.626000
4558.500000, 17.637000
4559.300000, 17.648200
4560.110000, 17.659500
4560.910000, 17.670600
4561.710000, 17.681500
4562.520000, 17.692300
4563.320000, 17.701700
4564.120000, 17.710700
4564.930000, 17.718900
4565.730000, 17.725700
4566.540000, 17.732400
4567.340000, 17.737800
4568.140000, 17.742900
4568.950000, 17.747500
4569.750000, 17.751100
4570.550000, 17.754700
4571.360000, 17.757500
4572.160000, 17.760100
4572.960000, 17.762700
4573.770000, 17.765300
4574.570000, 17.767900
4575.370000, 17.770100
4576.180000, 17.772300
4576.980000, 17.773900
4577.780000, 17.774100
4578.590000, 17.774300
4579.390000, 17.773600
4580.200000, 17.772600
4581.000000, 17.771700
4581.800000, 17.771000
4582.610000, 17.770200
4583.410000, 17.768900
4584.210000, 17.767400
4585.020000, 17.765300
4585.820000, 17.761200
4586.620000, 17.757100
4587.430000, 17.751000
4588.230000, 17.744100
4589.030000, 17.736800
4589.840000, 17.728100
4590.640000, 17.719400
4591.450000, 17.710600
4592.250000, 17.701700
4593.050000, 17.692800
4593.860000, 17.684300
4594.660000, 17.675800
4595.460000, 17.667000
4596.270000, 17.657900
4597.070000, 17.648800
4597.870000, 17.638200
4598.680000, 17.627500
4599.480000, 17.615700
4600.280000, 17.602800
4601.090000, 17.589900
4601.890000, 17.574900
4602.690000, 17.559900
4603.500000, 17.544400
4604.300000, 17.528200
4605.110000, 17.512100
4605.910000, 17.495700
4606.710000, 17.479300
4607.520000, 17.462600
4608.320000, 17.445300
4609.120000, 17.428100
4609.930000, 17.409400
4610.730000, 17.390400
4611.530000, 17.370900
4612.340000, 17.350000
4613.140000, 17.329100
4613.940000, 17.307200
4614.750000, 17.284800
4615.550000, 17.262200
4616.360000, 17.238400
4617.160000, 17.214500
4617.960000, 17.190000
4618.770000, 17.165000
4619.570000, 17.140000
4620.370000, 17.114300
4621.180000, 17.088700
4621.980000, 17.062600
4622.780000, 17.036200
4623.590000, 17.009700
4624.390000, 16.981600
4625.190000, 16.953400
4626.000000, 16.924500
4626.800000, 16.894300
4627.600000, 16.864100
4628.410000, 16.832800
4629.210000, 16.801100
4630.020000, 16.769100
4630.820000, 16.735800
4631.620000, 16.702500
4632.430000, 16.668000
4633.230000, 16.632800
4634.030000, 16.597600
4634.840000, 16.561100
4635.640000, 16.524700
4636.440000, 16.487500
4637.250000, 16.449600
4638.050000, 16.411800
4638.850000, 16.371800
4639.660000, 16.331500
4640.460000, 16.290500
4641.260000, 16.247800
4642.070000, 16.205100
4642.870000, 16.161600
4643.680000, 16.117700
4644.480000, 16.073800
4645.280000, 16.029900
4646.090000, 15.985900
4646.890000, 15.942000
4647.690000, 15.898000
4648.500000, 15.854100
4649.300000, 15.809200
4650.100000, 15.764200
4650.910000, 15.718300
4651.710000, 15.670700
4652.510000, 15.623100
4653.320000, 15.573200
4654.120000, 15.522400
4654.930000, 15.471300
4655.730000, 15.417900
4656.530000, 15.364500
4657.340000, 15.310200
4658.140000, 15.255100
4658.940000, 15.200000
4659.750000, 15.143800
4660.550000, 15.087500
4661.350000, 15.030700
4662.160000, 14.973100
4662.960000, 14.915400
4663.760000, 14.856900
4664.570000, 14.798000
4665.370000, 14.738900
4666.170000, 14.678700
4666.980000, 14.618400
4667.780000, 14.557200
4668.590000, 14.494900
4669.390000, 14.432600
4670.190000, 14.367700
4671.000000, 14.302400
4671.800000, 14.236300
4672.600000, 14.167900
4673.410000, 14.099400
4674.210000, 14.029700
4675.010000, 13.959300
4675.820000, 13.888900
4676.620000, 13.817200
4677.420000, 13.745500
4678.230000, 13.673000
4679.030000, 13.599200
4679.830000, 13.525400
4680.640000, 13.449700
4681.440000, 13.373300
4682.250000, 13.296800
4683.050000, 13.219000
4683.850000, 13.141200
4684.660000, 13.062600
4685.460000, 12.983400
4686.260000, 12.904100
4687.070000, 12.822600
4687.870000, 12.740800
4688.670000, 12.658300
4689.480000, 12.573600
4690.280000, 12.489000
4691.080000, 12.403400
4691.890000, 12.317000
4692.690000, 12.230800
4693.500000, 12.143000
4694.300000, 12.055200
4695.100000, 11.966600
4695.910000, 11.876300
4696.710000, 11.786000
4697.510000, 11.693900
4698.320000, 11.600900
4699.120000, 11.507900
4699.920000, 11.413100
4700.730000, 11.318400
4701.530000, 11.223100
4702.330000, 11.126700
4703.140000, 11.030400
4703.940000, 10.932600
4704.740000, 10.834300
4705.550000, 10.735800
4706.350000, 10.635500
4707.160000, 10.535200
4707.960000, 10.434300
4708.760000, 10.332200
4709.570000, 10.230300
4710.370000, 10.126800
4711.170000, 10.022900
4711.980000, 9.918880
4712.780000, 9.812900
4713.580000, 9.706960
4714.390000, 9.600290
4715.190000, 9.492540
4715.990000, 9.384830
4716.800000, 9.275560
4717.600000, 9.165770
4718.410000, 9.055830
4719.210000, 8.943490
4720.010000, 8.831200
4720.820000, 8.718250
4721.620000, 8.604310
4722.420000, 8.490410
4723.230000, 8.376410
4724.030000, 8.262390
4724.830000, 8.148400
4725.640000, 8.034320
4726.440000, 7.920280
4727.240000, 7.806040
4728.050000, 7.691450
4728.850000, 7.576900
4729.650000, 7.462260
4730.460000, 7.347610
4731.260000, 7.232990
4732.070000, 7.118450
4732.870000, 7.003940
4733.670000, 6.889430
4734.480000, 6.774840
4735.280000, 6.660300
4736.080000, 6.545970
4736.890000, 6.431800
4737.690000, 6.317660
4738.490000, 6.204070
4739.300000, 6.090550
4740.100000, 5.977130
4740.900000, 5.863900
4741.710000, 5.750700
4742.510000, 5.637750
4743.310000, 5.525010
4744.120000, 5.412310
4744.920000, 5.300890
4745.730000, 5.189740
4746.530000, 5.079010
4747.330000, 4.970730
4748.140000, 4.862480
4748.940000, 4.755590
4749.740000, 4.650510
4750.550000, 4.545460
4751.350000, 4.442130
4752.150000, 4.339470
4752.960000, 4.236870
4753.760000, 4.135900
4754.560000, 4.034970
4755.370000, 3.934530
4756.170000, 3.835230
4756.980000, 3.735960
4757.780000, 3.638080
4758.580000, 3.541200
4759.390000, 3.444360
4760.190000, 3.351160
4760.990000, 3.258530
4761.800000, 3.166700
4762.600000, 3.079250
4763.400000, 2.991840
4764.210000, 2.905970
4765.010000, 2.822160
4765.810000, 2.738370
4766.620000, 2.656200
4767.420000, 2.574720
4768.220000, 2.493270
4769.030000, 2.414980
4769.830000, 2.336800
4770.640000, 2.259650
4771.440000, 2.185590
4772.240000, 2.111560
4773.050000, 2.039610
4773.850000, 1.969620
4774.650000, 1.899650
4775.460000, 1.833180
4776.260000, 1.767700
4777.060000, 1.702470
4777.870000, 1.642320
4778.670000, 1.582200
4779.470000, 1.523640
4780.280000, 1.468640
4781.080000, 1.413660
4781.880000, 1.360880
4782.690000, 1.309820
4783.490000, 1.258770
4784.300000, 1.210510
4785.100000, 1.162880
4785.900000, 1.115520
4786.710000, 1.071590
4787.510000, 1.027670
4788.310000, 0.984830
4789.120000, 0.944300
4789.920000, 0.903790
4790.720000, 0.865010
4791.530000, 0.827560
4792.330000, 0.790130
4793.130000, 0.755440
4793.940000, 0.721400
4794.740000, 0.687570
4795.550000, 0.657210
4796.350000, 0.626850
4797.150000, 0.597560
4797.960000, 0.570790
4798.760000, 0.544040
4799.560000, 0.518800
4800.370000, 0.494890
4801.170000, 0.471000
4801.970000, 0.448340
4802.780000, 0.426070
4803.580000, 0.403800
4804.380000, 0.382840
4805.190000, 0.361890
4805.990000, 0.341480
4806.790000, 0.322830
4807.600000, 0.304190
4808.400000, 0.286970
4809.210000, 0.271420
4810.010000, 0.255870
4810.810000, 0.242290
4811.620000, 0.229620
4812.420000, 0.216960
4813.220000, 0.206220
4814.030000, 0.195700
4814.830000, 0.185340
4815.630000, 0.176140
4816.440000, 0.166940
4817.240000, 0.158070
4818.040000, 0.149810
4818.850000, 0.141550
4819.650000, 0.133860
4820.450000, 0.126620
4821.260000, 0.119390
4822.060000, 0.113090
4822.870000, 0.107060
4823.670000, 0.101050
4824.470000, 0.096380
4825.280000, 0.091750
4826.080000, 0.087330
4826.880000, 0.083860
4827.690000, 0.080380
4828.490000, 0.077060
4829.290000, 0.073980
4830.100000, 0.070890
4830.900000, 0.067700
4831.700000, 0.064430
4832.510000, 0.061160
4833.310000, 0.057860
4834.120000, 0.054560
4834.920000, 0.051250
4835.720000, 0.048410
4836.530000, 0.045570
4837.330000, 0.042860
4838.130000, 0.040730
4838.940000, 0.038600
4839.740000, 0.036660
4840.540000, 0.035050
4841.350000, 0.033440
4842.150000, 0.031880
4842.950000, 0.030380
4843.760000, 0.028870
4844.560000, 0.027440
4845.360000, 0.026050
4846.170000, 0.024650
4846.970000, 0.023890
4847.780000, 0.023190
4848.580000, 0.022560
4849.380000, 0.022680
4850.190000, 0.022790
4850.990000, 0.022960
4851.790000, 0.023260
4852.600000, 0.023550
4853.400000, 0.023700
4854.200000, 0.023670
4855.010000, 0.023650
4855.810000, 0.023310
4856.610000, 0.022790
4857.420000, 0.022260
4858.220000, 0.021120
4859.030000, 0.019820
4859.830000, 0.018520
4860.630000, 0.016600
4861.440000, 0.014660
4862.240000, 0.012760
4863.040000, 0.011130
4863.850000, 0.009510
4864.650000, 0.008220
4865.450000, 0.007730
4866.260000, 0.007250
4867.060000, 0.007240
4867.860000, 0.007810
4868.670000, 0.008380
4869.470000, 0.009320
4870.270000, 0.010500
4871.080000, 0.011680
4871.880000, 0.013050
4872.690000, 0.014470
4873.490000, 0.015890
4874.290000, 0.017140
4875.100000, 0.018380
4875.900000, 0.019550
4876.700000, 0.019880
4877.510000, 0.020220
4878.310000, 0.020280
4879.110000, 0.019320
4879.920000, 0.018370
4880.720000, 0.017380
4881.520000, 0.016330
4882.330000, 0.015280
4883.130000, 0.014970
4883.930000, 0.015420
4884.740000, 0.015880
4885.540000, 0.016950
4886.350000, 0.018380
4887.150000, 0.019810
4887.950000, 0.020660
4888.760000, 0.021330
4889.560000, 0.022000
4890.360000, 0.021810
4891.170000, 0.021530
4891.970000, 0.021240
4892.770000, 0.020920
4893.580000, 0.020600
4894.380000, 0.020290
4895.180000, 0.019970
4895.990000, 0.019650
4896.790000, 0.019240
4897.600000, 0.018600
4898.400000, 0.017960
4899.200000, 0.017400
4900.010000, 0.016970
4900.810000, 0.016540
4901.610000, 0.016410
4902.420000, 0.016580
4903.220000, 0.016740
4904.020000, 0.016990
4904.830000, 0.017290
4905.630000, 0.017590
4906.430000, 0.017790
4907.240000, 0.017960
4908.040000, 0.018130
4908.840000, 0.018230
4909.650000, 0.018310
4910.450000, 0.018400
4911.260000, 0.018420
4912.060000, 0.018450
4912.860000, 0.018480
4913.670000, 0.018670
4914.470000, 0.018860
4915.270000, 0.019100
4916.080000, 0.019590
4916.880000, 0.020070
4917.680000, 0.020530
4918.490000, 0.020910
4919.290000, 0.021290
4920.090000, 0.021440
4920.900000, 0.021180
4921.700000, 0.020930
4922.500000, 0.020390
4923.310000, 0.019510
4924.110000, 0.018620
4924.920000, 0.017860
4925.720000, 0.017200
4926.520000, 0.016530
4927.330000, 0.016560
4928.130000, 0.016970
4928.930000, 0.017390
4929.740000, 0.018210
4930.540000, 0.019180
4931.340000, 0.020150
4932.150000, 0.020370
4932.950000, 0.020420
4933.750000, 0.020470
4934.560000, 0.019290
4935.360000, 0.017980
4936.170000, 0.016660
4936.970000, 0.015100
4937.770000, 0.013540
4938.580000, 0.012020
4939.380000, 0.011270
4940.180000, 0.010520
4940.990000, 0.009880
4941.790000, 0.010040
4942.590000, 0.010200
4943.400000, 0.010520
4944.200000, 0.011540
4945.000000, 0.012570
4945.810000, 0.013780
4946.610000, 0.015570
4947.410000, 0.017350
4948.220000, 0.019160
4949.020000, 0.021020
4949.830000, 0.022870
4950.630000, 0.024570
4951.430000, 0.025990
4952.240000, 0.027420
4953.040000, 0.028560
4953.840000, 0.029330
4954.650000, 0.030100
4955.450000, 0.030260
4956.250000, 0.029790
4957.060000, 0.029310
4957.860000, 0.028250
4958.660000, 0.026700
4959.470000, 0.025150
4960.270000, 0.023710
4961.080000, 0.022340
4961.880000, 0.020960
4962.680000, 0.019890
4963.490000, 0.019000
4964.290000, 0.018100
4965.090000, 0.017200
4965.900000, 0.016310
4966.700000, 0.015410
4967.500000, 0.014840
4968.310000, 0.014400
4969.110000, 0.013950
4969.910000, 0.014300
4970.720000, 0.014890
4971.520000, 0.015490
4972.320000, 0.016300
4973.130000, 0.017180
4973.930000, 0.018050
4974.740000, 0.018430
4975.540000, 0.018700
4976.340000, 0.018970
4977.150000, 0.019190
4977.950000, 0.019410
4978.750000, 0.019620
4979.560000, 0.020310
4980.360000, 0.021060
4981.160000, 0.021810
4981.970000, 0.022420
4982.770000, 0.023010
4983.570000, 0.023610
4984.380000, 0.023280
4985.180000, 0.022880
4985.980000, 0.022480
4986.790000, 0.021150
4987.590000, 0.019780
4988.400000, 0.018410
4989.200000, 0.016840
4990.000000, 0.015270
4990.810000, 0.013700
4991.610000, 0.012890
4992.410000, 0.012110
4993.220000, 0.011330
4994.020000, 0.011650
4994.820000, 0.011990
4995.630000, 0.012330
4996.430000, 0.013180
4997.230000, 0.014040
4998.040000, 0.014890
4998.840000, 0.015300
4999.650000, 0.015720
5000.000000, 0.016130
