# Wavelength  (nm), Transmission (%)
200.000000, 0.008730
205.000000, 0.004330
210.000000, 0.003320
215.000000, 0.001980
220.000000, 0.004820
225.000000, 0.000545
230.000000, 0.003040
235.000000, 0.000327
240.000000, 0.000877
245.000000, 0.004730
250.000000, 0.002420
255.000000, 0.001650
260.000000, 0.000219
265.000000, 0.007020
270.000000, 0.002300
275.000000, 0.003180
280.000000, 0.003510
285.000000, 0.006240
290.000000, 0.001530
295.000000, 0.002510
300.000000, 0.002730
305.000000, 0.006640
310.000000, 0.002720
315.000000, 0.021450
320.000000, 0.422060
325.000000, 2.772840
330.000000, 8.737600
335.000000, 17.415210
340.000000, 27.066390
345.000000, 35.695390
350.000000, 43.008590
355.000000, 48.741270
360.000000, 53.305490
365.000000, 56.879210
370.000000, 59.937620
375.000000, 62.559580
380.000000, 64.827430
385.000000, 66.818510
390.000000, 68.635380
395.000000, 70.354950
400.000000, 71.902440
405.000000, 73.315490
410.000000, 74.603010
415.000000, 75.857530
420.000000, 76.996760
425.000000, 78.043990
430.000000, 79.021290
435.000000, 79.977010
440.000000, 80.810260
445.000000, 81.608870
450.000000, 82.320900
455.000000, 83.049680
460.000000, 83.632000
465.000000, 84.234090
470.000000, 84.718610
475.000000, 85.237470
480.000000, 85.620960
485.000000, 85.950370
490.000000, 86.195010
495.000000, 86.423280
500.000000, 86.513960
505.000000, 86.517960
510.000000, 86.348840
515.000000, 86.079660
520.000000, 85.573960
525.000000, 84.809570
530.000000, 83.765100
535.000000, 82.489080
540.000000, 80.767140
545.000000, 78.704620
550.000000, 76.090620
555.000000, 73.179390
560.000000, 69.533440
565.000000, 65.687850
570.000000, 61.277490
575.000000, 56.547380
580.000000, 51.400570
585.000000, 46.192030
590.000000, 40.812630
595.000000, 35.515550
600.000000, 30.289840
605.000000, 25.476990
610.000000, 20.953020
615.000000, 16.942120
620.000000, 13.355250
625.000000, 10.364900
630.000000, 7.824630
635.000000, 5.805950
640.000000, 4.176110
645.000000, 2.964620
650.000000, 2.035340
655.000000, 1.375030
660.000000, 0.895140
665.000000, 0.577830
670.000000, 0.359820
675.000000, 0.220610
680.000000, 0.125650
685.000000, 0.075370
690.000000, 0.042160
695.000000, 0.021490
700.000000, 0.008730
705.000000, 0.005550
710.000000, 0.002260
715.000000, 0.000103
720.000000, 0.004720
725.000000, 0.000205
730.000000, 0.000512
735.000000, 0.002560
740.000000, 0.006040
745.000000, 0.002040
750.000000, 0.002450
755.000000, 0.002860
760.000000, 0.006230
765.000000, 0.001430
770.000000, 0.001730
775.000000, 0.004990
780.000000, 0.004880
785.000000, 0.001420
790.000000, 0.001930
795.000000, 0.001220
800.000000, 0.006800
805.000000, 0.004060
810.000000, 0.005480
815.000000, 0.000812
820.000000, 0.000813
825.000000, 0.000102
830.000000, 0.005710
835.000000, 0.005220
840.000000, 0.003490
845.000000, 0.004640
850.000000, 0.009400
855.000000, 0.001250
860.000000, 0.039490
865.000000, 0.041450
870.000000, 0.044350
875.000000, 0.056190
880.000000, 0.076350
885.000000, 0.082270
890.000000, 0.061450
895.000000, 0.042850
900.000000, 0.037120
905.000000, 0.070080
910.000000, 0.093900
915.000000, 0.115010
920.000000, 0.094020
925.000000, 0.055230
930.000000, 0.037650
935.000000, 0.051580
940.000000, 0.045550
945.000000, 0.074470
950.000000, 0.063230
955.000000, 0.063740
960.000000, 0.050030
965.000000, 0.036600
970.000000, 0.032460
975.000000, 0.017060
980.000000, 0.029220
985.000000, 0.043880
990.000000, 0.014040
995.000000, 0.002390
1000.000000, 0.010190
1005.000000, 0.047400
1010.000000, 0.058940
1015.000000, 0.032850
1020.000000, 0.005720
1025.000000, 0.014450
1030.000000, 0.035860
1035.000000, 0.028690
1040.000000, 0.003740
1045.000000, 0.013930
1050.000000, 0.023600
1055.000000, 0.041990
1060.000000, 0.002180
1065.000000, 0.008630
1070.000000, 0.022870
1075.000000, 0.021730
1080.000000, 0.002810
1085.000000, 0.030770
1090.000000, 0.013830
1095.000000, 0.049190
1100.000000, 0.049500
1105.000000, 0.005100
1110.000000, 0.031000
1115.000000, 0.021330
1120.000000, 0.032570
1125.000000, 0.056510
1130.000000, 0.027680
1135.000000, 0.003640
1140.000000, 0.037900
1145.000000, 0.027380
1150.000000, 0.048740
1155.000000, 0.027490
1160.000000, 0.016350
1165.000000, 0.030310
1170.000000, 0.015210
1175.000000, 0.018230
1180.000000, 0.023970
1185.000000, 0.013660
1190.000000, 0.059870
1195.000000, 0.148110
1200.000000, 0.154350
1205.000000, 0.074680
1210.000000, 0.036520
1215.000000, 0.067510
1220.000000, 0.035800
1225.000000, 0.006990
1230.000000, 0.069280
1235.000000, 0.121660
1240.000000, 0.108080
1245.000000, 0.074610
1250.000000, 0.009080
1255.000000, 0.075250
1260.000000, 0.080700
1265.000000, 0.022650
1270.000000, 0.045300
1275.000000, 0.123890
1280.000000, 0.133360
1285.000000, 0.112800
1290.000000, 0.111650
1295.000000, 0.113630
1300.000000, 0.080880
1305.000000, 0.021910
1310.000000, 0.001040
1315.000000, 0.062290
1320.000000, 0.204020
1325.000000, 0.351500
1330.000000, 0.394660
1335.000000, 0.326510
1340.000000, 0.132060
1345.000000, 0.056230
1350.000000, 0.037670
1355.000000, 0.181110
1360.000000, 0.356850
1365.000000, 0.439870
1370.000000, 0.325440
1375.000000, 0.336970
1380.000000, 0.574760
1385.000000, 0.507530
1390.000000, 0.431560
1395.000000, 0.589310
1400.000000, 0.699320
1405.000000, 0.780320
1410.000000, 0.860070
1415.000000, 1.000730
1420.000000, 1.116150
1425.000000, 1.197040
1430.000000, 1.269820
1435.000000, 1.341480
1440.000000, 1.478970
1445.000000, 1.673400
1450.000000, 1.821610
1455.000000, 1.928960
1460.000000, 2.046740
1465.000000, 2.225750
1470.000000, 2.441910
1475.000000, 2.653030
1480.000000, 2.886430
1485.000000, 3.125880
1490.000000, 3.374890
1495.000000, 3.606470
1500.000000, 3.825700
1505.000000, 4.091600
1510.000000, 4.408550
1515.000000, 4.741480
1520.000000, 5.034700
1525.000000, 5.329220
1530.000000, 5.674150
1535.000000, 6.067270
1540.000000, 6.462740
1545.000000, 6.844870
1550.000000, 7.207980
1555.000000, 7.598070
1560.000000, 8.044370
1565.000000, 8.504380
1570.000000, 8.948020
1575.000000, 9.399630
1580.000000, 9.870910
1585.000000, 10.345820
1590.000000, 10.842030
1595.000000, 11.384120
1600.000000, 11.929090
1605.000000, 12.461100
1610.000000, 12.964290
1615.000000, 13.481390
1620.000000, 14.037600
1625.000000, 14.598940
1630.000000, 15.181010
1635.000000, 15.757060
1640.000000, 16.291510
1645.000000, 16.832890
1650.000000, 17.420990
1655.000000, 18.033740
1660.000000, 18.636820
1665.000000, 19.266300
1670.000000, 19.922920
1675.000000, 20.560200
1680.000000, 21.156780
1685.000000, 21.732800
1690.000000, 22.340380
1695.000000, 22.972550
1700.000000, 23.599410
1705.000000, 24.181390
1710.000000, 24.744620
1715.000000, 25.359230
1720.000000, 25.980460
1725.000000, 26.554330
1730.000000, 27.125060
1735.000000, 27.708530
1740.000000, 28.295060
1745.000000, 28.875510
1750.000000, 29.433860
1755.000000, 29.969150
1760.000000, 30.479250
1765.000000, 31.045020
1770.000000, 31.708120
1775.000000, 32.381960
1780.000000, 32.938200
1785.000000, 33.428900
1790.000000, 33.926050
1795.000000, 34.417790
1800.000000, 34.907830
1805.000000, 35.397920
1810.000000, 35.900820
1815.000000, 36.374960
1820.000000, 36.795070
1825.000000, 37.276080
1830.000000, 37.780940
1835.000000, 38.344840
1840.000000, 38.834200
1845.000000, 39.488100
1850.000000, 39.909540
1855.000000, 40.088410
1860.000000, 40.318970
1865.000000, 40.971930
1870.000000, 41.791070
1875.000000, 42.152460
1880.000000, 42.415620
1885.000000, 42.705130
1890.000000, 43.007310
1895.000000, 43.396850
1900.000000, 43.776050
1905.000000, 44.033370
1910.000000, 44.314450
1915.000000, 44.622040
1920.000000, 45.040120
1925.000000, 45.465540
1930.000000, 45.780510
1935.000000, 46.119970
1940.000000, 46.392900
1945.000000, 46.644370
1950.000000, 46.927580
1955.000000, 47.172350
1960.000000, 47.380200
1965.000000, 47.590390
1970.000000, 47.828150
1975.000000, 48.031830
1980.000000, 48.217270
1985.000000, 48.391350
1990.000000, 48.568090
1995.000000, 48.759690
2000.000000, 48.976710
2005.000000, 49.151270
2010.000000, 49.315570
2015.000000, 49.478640
2020.000000, 49.641420
2025.000000, 49.821620
2030.000000, 50.009140
2035.000000, 50.178660
2040.000000, 50.335750
2045.000000, 50.496520
2050.000000, 50.660520
2055.000000, 50.789720
2060.000000, 50.909670
2065.000000, 51.055610
2070.000000, 51.214950
2075.000000, 51.361530
2080.000000, 51.510040
2085.000000, 51.649650
2090.000000, 51.773300
2095.000000, 51.895410
2100.000000, 52.016100
2105.000000, 52.115600
2110.000000, 52.220680
2115.000000, 52.323200
2120.000000, 52.408280
2125.000000, 52.499270
2130.000000, 52.545050
2135.000000, 52.591790
2140.000000, 52.588020
2145.000000, 52.559890
2150.000000, 52.480670
2155.000000, 52.335260
2160.000000, 52.138980
2165.000000, 51.924720
2170.000000, 51.618730
2175.000000, 51.250980
2180.000000, 50.875440
2185.000000, 50.471790
2190.000000, 50.040300
2195.000000, 49.661810
2200.000000, 49.363340
2205.000000, 49.113460
2210.000000, 48.867990
2215.000000, 48.592710
2220.000000, 48.344640
2225.000000, 48.085870
2230.000000, 47.841690
2235.000000, 47.603560
2240.000000, 47.384470
2245.000000, 47.205910
2250.000000, 46.997520
2255.000000, 46.819990
2260.000000, 46.676650
2265.000000, 46.533250
2270.000000, 46.373570
2275.000000, 46.255630
2280.000000, 46.132460
2285.000000, 46.016690
2290.000000, 45.943400
2295.000000, 45.879980
2300.000000, 45.781860
2305.000000, 45.696870
2310.000000, 45.613250
2315.000000, 45.577000
2320.000000, 45.557570
2325.000000, 45.500460
2330.000000, 45.402760
2335.000000, 45.345720
2340.000000, 45.329410
2345.000000, 45.264150
2350.000000, 45.184350
2355.000000, 45.159380
2360.000000, 45.086080
2365.000000, 45.023560
2370.000000, 44.959140
2375.000000, 44.892640
2380.000000, 44.829420
2385.000000, 44.742660
2390.000000, 44.623210
2395.000000, 44.524140
2400.000000, 44.420770
2405.000000, 44.297200
2410.000000, 44.189910
2415.000000, 44.052460
2420.000000, 43.902650
2425.000000, 43.743000
2430.000000, 43.587150
2435.000000, 43.390220
2440.000000, 43.164910
2445.000000, 42.961130
2450.000000, 42.731830
2455.000000, 42.431480
2460.000000, 42.161990
2465.000000, 41.876570
2470.000000, 41.528490
2475.000000, 41.152310
2480.000000, 40.744300
2485.000000, 40.340160
2490.000000, 39.920710
2495.000000, 39.491930
2500.000000, 39.014080
2505.000000, 38.529820
2510.000000, 38.032440
2515.000000, 37.482990
2520.000000, 36.845710
2525.000000, 36.366620
2530.000000, 35.972080
2535.000000, 35.503590
2540.000000, 35.026090
2545.000000, 34.580760
2550.000000, 33.917230
2555.000000, 33.357800
2560.000000, 33.086460
2565.000000, 32.778290
2570.000000, 32.241310
2575.000000, 31.679600
2580.000000, 31.258390
2585.000000, 30.894340
2590.000000, 30.542260
2595.000000, 30.173530
2600.000000, 29.879240
