# Wavelength  (nm), Transmission (%)
200.000000, 0.000481
201.000000, 0.000571
202.000000, 0.000407
203.000000, 0.000232
204.000000, 0.000333
205.000000, 0.000401
206.000000, 0.000035
207.000000, 0.000502
208.000000, 0.000502
209.000000, 0.000249
210.000000, 0.000614
211.000000, 0.000451
212.000000, 0.000519
213.000000, 0.000114
214.000000, 0.000092
215.000000, 0.000159
216.000000, 0.000406
217.000000, 0.000199
218.000000, 0.000266
219.000000, 0.000495
220.000000, 0.000216
221.000000, 0.000311
222.000000, 0.000578
223.000000, 0.000500
224.000000, 0.000333
225.000000, 0.000188
226.000000, 0.000216
227.000000, 0.000427
228.000000, 0.000482
229.000000, 0.000360
230.000000, 0.000382
231.000000, 0.000415
232.000000, 0.000322
233.000000, 0.000465
234.000000, 0.000531
235.000000, 0.000355
236.000000, 0.000410
237.000000, 0.000454
238.000000, 0.000443
239.000000, 0.000432
240.000000, 0.000570
241.000000, 0.000482
242.000000, 0.000344
243.000000, 0.000560
244.000000, 0.000504
245.000000, 0.000488
246.000000, 0.000604
247.000000, 0.000454
248.000000, 0.000460
249.000000, 0.000432
250.000000, 0.000421
251.000000, 0.000592
252.000000, 0.000702
253.000000, 0.000448
254.000000, 0.000421
255.000000, 0.000503
256.000000, 0.000454
257.000000, 0.000465
258.000000, 0.000613
259.000000, 0.000415
260.000000, 0.000585
261.000000, 0.000574
262.000000, 0.000514
263.000000, 0.000574
264.000000, 0.000640
265.000000, 0.000508
266.000000, 0.000360
267.000000, 0.000365
268.000000, 0.000360
269.000000, 0.000509
270.000000, 0.000602
271.000000, 0.000415
272.000000, 0.000366
273.000000, 0.000432
274.000000, 0.000432
275.000000, 0.000426
276.000000, 0.000541
277.000000, 0.000338
278.000000, 0.000442
279.000000, 0.000365
280.000000, 0.000382
281.000000, 0.000437
282.000000, 0.000519
283.000000, 0.000305
284.000000, 0.000310
285.000000, 0.000234
286.000000, 0.000541
287.000000, 0.000415
288.000000, 0.000513
289.000000, 0.000299
290.000000, 0.000371
291.000000, 0.000294
292.000000, 0.000403
293.000000, 0.000453
294.000000, 0.000409
295.000000, 0.000223
296.000000, 0.000327
297.000000, 0.000212
298.000000, 0.000305
299.000000, 0.000338
300.000000, 0.000430
301.000000, 0.000250
302.000000, 0.000327
303.000000, 0.000207
304.000000, 0.000332
305.000000, 0.000354
306.000000, 0.000446
307.000000, 0.000218
308.000000, 0.000136
309.000000, 0.000223
310.000000, 0.000452
311.000000, 0.000484
312.000000, 0.000375
313.000000, 0.000473
314.000000, 0.000343
315.000000, 0.000462
316.000000, 0.000489
317.000000, 0.000402
318.000000, 0.000392
319.000000, 0.000371
320.000000, 0.000486
321.000000, 0.000349
322.000000, 0.000508
323.000000, 0.000442
324.000000, 0.000453
325.000000, 0.000398
326.000000, 0.000431
327.000000, 0.000365
328.000000, 0.000508
329.000000, 0.000447
330.000000, 0.000535
331.000000, 0.000524
332.000000, 0.000332
333.000000, 0.000551
334.000000, 0.000529
335.000000, 0.000485
336.000000, 0.000589
337.000000, 0.000425
338.000000, 0.000474
339.000000, 0.000485
340.000000, 0.000561
341.000000, 0.000528
342.000000, 0.000572
343.000000, 0.000528
344.000000, 0.000354
345.000000, 0.000681
346.000000, 0.000664
347.000000, 0.000403
348.000000, 0.000539
349.000000, 0.000408
350.000000, 0.000403
351.000000, 0.000680
352.000000, 0.000631
353.000000, 0.000468
354.000000, 0.000533
355.000000, 0.000337
356.000000, 0.000337
357.000000, 0.000674
358.000000, 0.000527
359.000000, 0.000473
360.000000, 0.000549
361.000000, 0.000413
362.000000, 0.000429
363.000000, 0.000570
364.000000, 0.000337
365.000000, 0.000353
366.000000, 0.000608
367.000000, 0.000240
368.000000, 0.000391
369.000000, 0.000553
370.000000, 0.000348
371.000000, 0.000397
372.000000, 0.000526
373.000000, 0.000418
374.000000, 0.000391
375.000000, 0.000671
376.000000, 0.000289
377.000000, 0.000321
378.000000, 0.000526
379.000000, 0.000584
380.000000, 0.000364
381.000000, 0.000267
382.000000, 0.000401
383.000000, 0.000278
384.000000, 0.000267
385.000000, 0.000487
386.000000, 0.000326
387.000000, 0.000256
388.000000, 0.000267
389.000000, 0.000273
390.000000, 0.000315
391.000000, 0.000476
392.000000, 0.000208
393.000000, 0.000294
394.000000, 0.000406
395.000000, 0.000326
396.000000, 0.000315
397.000000, 0.000481
398.000000, 0.000230
399.000000, 0.000321
400.000000, 0.000481
401.000000, 0.000379
402.000000, 0.000267
403.000000, 0.000603
404.000000, 0.000433
405.000000, 0.000337
406.000000, 0.000411
407.000000, 0.000246
408.000000, 0.000262
409.000000, 0.000475
410.000000, 0.000453
411.000000, 0.000448
412.000000, 0.000283
413.000000, 0.000230
414.000000, 0.000310
415.000000, 0.000464
416.000000, 0.000368
417.000000, 0.000336
418.000000, 0.000358
419.000000, 0.000209
420.000000, 0.000347
421.000000, 0.000395
422.000000, 0.000193
423.000000, 0.000241
424.000000, 0.000342
425.000000, 0.000172
426.000000, 0.000283
427.000000, 0.000389
428.000000, 0.000384
429.000000, 0.000320
430.000000, 0.000246
431.000000, 0.000199
432.000000, 0.000363
433.000000, 0.000484
434.000000, 0.000394
435.000000, 0.000352
436.000000, 0.000278
437.000000, 0.000199
438.000000, 0.000384
439.000000, 0.000410
440.000000, 0.000326
441.000000, 0.000278
442.000000, 0.000352
443.000000, 0.000205
444.000000, 0.000378
445.000000, 0.000467
446.000000, 0.000404
447.000000, 0.000378
448.000000, 0.000362
449.000000, 0.000231
450.000000, 0.000346
451.000000, 0.000436
452.000000, 0.000310
453.000000, 0.000268
454.000000, 0.000409
455.000000, 0.000373
456.000000, 0.000352
457.000000, 0.000441
458.000000, 0.000373
459.000000, 0.000331
460.000000, 0.000310
461.000000, 0.000304
462.000000, 0.000388
463.000000, 0.000399
464.000000, 0.000357
465.000000, 0.000268
466.000000, 0.000284
467.000000, 0.000226
468.000000, 0.000341
469.000000, 0.000404
470.000000, 0.000341
471.000000, 0.000331
472.000000, 0.000294
473.000000, 0.000237
474.000000, 0.000351
475.000000, 0.000404
476.000000, 0.000263
477.000000, 0.000242
478.000000, 0.000252
479.000000, 0.000138
480.000000, 0.000289
481.000000, 0.000403
482.000000, 0.000268
483.000000, 0.000247
484.000000, 0.000247
485.000000, 0.000211
486.000000, 0.000299
487.000000, 0.000377
488.000000, 0.000351
489.000000, 0.000304
490.000000, 0.000232
491.000000, 0.000200
492.000000, 0.000320
493.000000, 0.000346
494.000000, 0.000289
495.000000, 0.000315
496.000000, 0.000252
497.000000, 0.000169
498.000000, 0.000284
499.000000, 0.000367
500.000000, 0.000258
501.000000, 0.000247
502.000000, 0.000216
503.000000, 0.000164
504.000000, 0.000341
505.000000, 0.000393
506.000000, 0.000268
507.000000, 0.000242
508.000000, 0.000237
509.000000, 0.000195
510.000000, 0.000362
511.000000, 0.000372
512.000000, 0.000185
513.000000, 0.000263
514.000000, 0.000278
515.000000, 0.000221
516.000000, 0.000367
517.000000, 0.000419
518.000000, 0.000304
519.000000, 0.000304
520.000000, 0.000278
521.000000, 0.000242
522.000000, 0.000413
523.000000, 0.000393
524.000000, 0.000221
525.000000, 0.000325
526.000000, 0.000346
527.000000, 0.000268
528.000000, 0.000439
529.000000, 0.000418
530.000000, 0.000253
531.000000, 0.000304
532.000000, 0.000330
533.000000, 0.000320
534.000000, 0.000496
535.000000, 0.000455
536.000000, 0.000304
537.000000, 0.000423
538.000000, 0.000480
539.000000, 0.000341
540.000000, 0.000413
541.000000, 0.000418
542.000000, 0.000320
543.000000, 0.000429
544.000000, 0.000475
545.000000, 0.000341
546.000000, 0.000439
547.000000, 0.000429
548.000000, 0.000320
549.000000, 0.000428
550.000000, 0.000480
551.000000, 0.000366
552.000000, 0.000475
553.000000, 0.000413
554.000000, 0.000284
555.000000, 0.000439
556.000000, 0.000465
557.000000, 0.000397
558.000000, 0.000506
559.000000, 0.000413
560.000000, 0.000335
561.000000, 0.000475
562.000000, 0.000418
563.000000, 0.000496
564.000000, 0.000573
565.000000, 0.000361
566.000000, 0.000418
567.000000, 0.000346
568.000000, 0.000320
569.000000, 0.000496
570.000000, 0.000475
571.000000, 0.000320
572.000000, 0.000413
573.000000, 0.000366
574.000000, 0.000273
575.000000, 0.000403
576.000000, 0.000480
577.000000, 0.000320
578.000000, 0.000372
579.000000, 0.000330
580.000000, 0.000268
581.000000, 0.000377
582.000000, 0.000413
583.000000, 0.000335
584.000000, 0.000428
585.000000, 0.000330
586.000000, 0.000242
587.000000, 0.000346
588.000000, 0.000309
589.000000, 0.000242
590.000000, 0.000418
591.000000, 0.000279
592.000000, 0.000217
593.000000, 0.000320
594.000000, 0.000361
595.000000, 0.000211
596.000000, 0.000335
597.000000, 0.000315
598.000000, 0.000232
599.000000, 0.000309
600.000000, 0.000330
601.000000, 0.000217
602.000000, 0.000361
603.000000, 0.000315
604.000000, 0.000299
605.000000, 0.000506
606.000000, 0.000361
607.000000, 0.000284
608.000000, 0.000537
609.000000, 0.000418
610.000000, 0.000377
611.000000, 0.000537
612.000000, 0.000537
613.000000, 0.000340
614.000000, 0.000542
615.000000, 0.000619
616.000000, 0.000526
617.000000, 0.000645
618.000000, 0.000583
619.000000, 0.000418
620.000000, 0.000650
621.000000, 0.000619
622.000000, 0.000536
623.000000, 0.000701
624.000000, 0.000706
625.000000, 0.000464
626.000000, 0.000624
627.000000, 0.000593
628.000000, 0.000670
629.000000, 0.000686
630.000000, 0.000691
631.000000, 0.000402
632.000000, 0.000624
633.000000, 0.000634
634.000000, 0.000701
635.000000, 0.000799
636.000000, 0.000629
637.000000, 0.000392
638.000000, 0.000722
639.000000, 0.000639
640.000000, 0.000721
641.000000, 0.000778
642.000000, 0.000768
643.000000, 0.000531
644.000000, 0.000773
645.000000, 0.000665
646.000000, 0.000731
647.000000, 0.000742
648.000000, 0.000726
649.000000, 0.000598
650.000000, 0.000762
651.000000, 0.000598
652.000000, 0.000618
653.000000, 0.000798
654.000000, 0.000736
655.000000, 0.000566
656.000000, 0.000777
657.000000, 0.000649
658.000000, 0.000690
659.000000, 0.000782
660.000000, 0.000705
661.000000, 0.000577
662.000000, 0.000834
663.000000, 0.000700
664.000000, 0.000797
665.000000, 0.000905
666.000000, 0.000705
667.000000, 0.000463
668.000000, 0.000730
669.000000, 0.000597
670.000000, 0.000776
671.000000, 0.000740
672.000000, 0.000597
673.000000, 0.000581
674.000000, 0.000679
675.000000, 0.000596
676.000000, 0.000637
677.000000, 0.000781
678.000000, 0.000545
679.000000, 0.000540
680.000000, 0.000750
681.000000, 0.000627
682.000000, 0.000591
683.000000, 0.000714
684.000000, 0.000514
685.000000, 0.000591
686.000000, 0.000791
687.000000, 0.000662
688.000000, 0.000667
689.000000, 0.000780
690.000000, 0.000637
691.000000, 0.000550
692.000000, 0.000785
693.000000, 0.000647
694.000000, 0.000580
695.000000, 0.000851
696.000000, 0.000590
697.000000, 0.000733
698.000000, 0.000805
699.000000, 0.000703
700.000000, 0.000610
701.000000, 0.000809
702.000000, 0.000789
703.000000, 0.000799
704.000000, 0.000875
705.000000, 0.000651
706.000000, 0.000610
707.000000, 0.000875
708.000000, 0.000595
709.000000, 0.000620
710.000000, 0.000712
711.000000, 0.000742
712.000000, 0.000696
713.000000, 0.000951
714.000000, 0.000772
715.000000, 0.000579
716.000000, 0.000818
717.000000, 0.000584
718.000000, 0.000767
719.000000, 0.000813
720.000000, 0.000589
721.000000, 0.000619
722.000000, 0.000904
723.000000, 0.000741
724.000000, 0.000695
725.000000, 0.000903
726.000000, 0.000822
727.000000, 0.000649
728.000000, 0.000898
729.000000, 0.000649
730.000000, 0.000786
731.000000, 0.000852
732.000000, 0.000689
733.000000, 0.000699
734.000000, 0.000907
735.000000, 0.000725
736.000000, 0.000755
737.000000, 0.000881
738.000000, 0.000684
739.000000, 0.000663
740.000000, 0.000911
741.000000, 0.000780
742.000000, 0.000795
743.000000, 0.000845
744.000000, 0.000648
745.000000, 0.000814
746.000000, 0.000875
747.000000, 0.000673
748.000000, 0.000824
749.000000, 0.000890
750.000000, 0.000713
751.000000, 0.000703
752.000000, 0.000788
753.000000, 0.000723
754.000000, 0.000828
755.000000, 0.000823
756.000000, 0.000687
757.000000, 0.000702
758.000000, 0.000793
759.000000, 0.000697
760.000000, 0.000757
761.000000, 0.000858
762.000000, 0.000681
763.000000, 0.000706
764.000000, 0.000772
765.000000, 0.000631
766.000000, 0.000671
767.000000, 0.000751
768.000000, 0.000605
769.000000, 0.000570
770.000000, 0.000731
771.000000, 0.000821
772.000000, 0.000760
773.000000, 0.000911
774.000000, 0.000765
775.000000, 0.000700
776.000000, 0.000815
777.000000, 0.000785
778.000000, 0.000760
779.000000, 0.000865
780.000000, 0.000674
781.000000, 0.000694
782.000000, 0.000869
783.000000, 0.000804
784.000000, 0.000764
785.000000, 0.000829
786.000000, 0.000714
787.000000, 0.000639
788.000000, 0.000699
789.000000, 0.000494
790.000000, 0.000474
791.000000, 0.000743
792.000000, 0.000723
793.000000, 0.000703
794.000000, 0.000912
795.000000, 0.000812
796.000000, 0.000812
797.000000, 0.000807
798.000000, 0.000782
799.000000, 0.000772
800.000000, 0.000971
801.000000, 0.000807
802.000000, 0.000767
803.000000, 0.000886
804.000000, 0.000742
805.000000, 0.000617
806.000000, 0.000717
807.000000, 0.000528
808.000000, 0.000523
809.000000, 0.000761
810.000000, 0.000741
811.000000, 0.000870
812.000000, 0.000920
813.000000, 0.000801
814.000000, 0.000736
815.000000, 0.000885
816.000000, 0.000830
817.000000, 0.000880
818.000000, 0.000900
819.000000, 0.000825
820.000000, 0.000850
821.000000, 0.000925
822.000000, 0.000825
823.000000, 0.000816
824.000000, 0.000855
825.000000, 0.000677
826.000000, 0.000726
827.000000, 0.000866
828.000000, 0.000721
829.000000, 0.000761
830.000000, 0.000753
831.000000, 0.000551
832.000000, 0.000480
833.000000, 0.000570
834.000000, 0.000686
835.000000, 0.000745
836.000000, 0.000808
837.000000, 0.000656
838.000000, 0.000719
839.000000, 0.000809
840.000000, 0.000827
841.000000, 0.000859
842.000000, 0.000851
843.000000, 0.000702
844.000000, 0.000770
845.000000, 0.000807
846.000000, 0.000834
847.000000, 0.000911
848.000000, 0.000852
849.000000, 0.000694
850.000000, 0.000745
851.000000, 0.000899
852.000000, 0.000913
853.000000, 0.000913
854.000000, 0.000922
855.000000, 0.000781
856.000000, 0.000759
857.000000, 0.000832
858.000000, 0.000823
859.000000, 0.000819
860.000000, 0.000978
861.000000, 0.000966
862.000000, 0.000699
863.000000, 0.000628
864.000000, 0.000612
865.000000, 0.000703
866.000000, 0.000802
867.000000, 0.000805
868.000000, 0.000721
869.000000, 0.000621
870.000000, 0.000601
871.000000, 0.000560
872.000000, 0.000570
873.000000, 0.000693
874.000000, 0.000799
875.000000, 0.000810
876.000000, 0.000777
877.000000, 0.000721
878.000000, 0.000702
879.000000, 0.000662
880.000000, 0.000682
881.000000, 0.000725
882.000000, 0.000728
883.000000, 0.000779
884.000000, 0.000759
885.000000, 0.000623
886.000000, 0.000554
887.000000, 0.000617
888.000000, 0.000780
889.000000, 0.000823
890.000000, 0.000702
891.000000, 0.000575
892.000000, 0.000551
893.000000, 0.000687
894.000000, 0.000781
895.000000, 0.000686
896.000000, 0.000625
897.000000, 0.000743
898.000000, 0.000797
899.000000, 0.000756
900.000000, 0.000718
901.000000, 0.000635
902.000000, 0.000634
903.000000, 0.000755
904.000000, 0.000834
905.000000, 0.000782
906.000000, 0.000635
907.000000, 0.000599
908.000000, 0.000727
909.000000, 0.000781
910.000000, 0.000670
911.000000, 0.000606
912.000000, 0.000712
913.000000, 0.000741
914.000000, 0.000681
915.000000, 0.000746
916.000000, 0.000771
917.000000, 0.000668
918.000000, 0.000585
919.000000, 0.000618
920.000000, 0.000724
921.000000, 0.000736
922.000000, 0.000651
923.000000, 0.000632
924.000000, 0.000749
925.000000, 0.000831
926.000000, 0.000768
927.000000, 0.000603
928.000000, 0.000569
929.000000, 0.000751
930.000000, 0.000796
931.000000, 0.000656
932.000000, 0.000625
933.000000, 0.000727
934.000000, 0.000779
935.000000, 0.000760
936.000000, 0.000687
937.000000, 0.000641
938.000000, 0.000788
939.000000, 0.000804
940.000000, 0.000648
941.000000, 0.000692
942.000000, 0.000722
943.000000, 0.000678
944.000000, 0.000746
945.000000, 0.000742
946.000000, 0.000613
947.000000, 0.000605
948.000000, 0.000729
949.000000, 0.000809
950.000000, 0.000786
951.000000, 0.000683
952.000000, 0.000753
953.000000, 0.000822
954.000000, 0.000747
955.000000, 0.000573
956.000000, 0.000539
957.000000, 0.000708
958.000000, 0.000743
959.000000, 0.000686
960.000000, 0.000568
961.000000, 0.000553
962.000000, 0.000726
963.000000, 0.000902
964.000000, 0.000803
965.000000, 0.000623
966.000000, 0.000695
967.000000, 0.000760
968.000000, 0.000790
969.000000, 0.000793
970.000000, 0.000763
971.000000, 0.000642
972.000000, 0.000614
973.000000, 0.000762
974.000000, 0.000751
975.000000, 0.000623
976.000000, 0.000705
977.000000, 0.000729
978.000000, 0.000646
979.000000, 0.000711
980.000000, 0.000786
981.000000, 0.000730
982.000000, 0.000620
983.000000, 0.000740
984.000000, 0.000784
985.000000, 0.000762
986.000000, 0.000632
987.000000, 0.000731
988.000000, 0.000802
989.000000, 0.000749
990.000000, 0.000573
991.000000, 0.000567
992.000000, 0.000744
993.000000, 0.000823
994.000000, 0.000749
995.000000, 0.000614
996.000000, 0.000736
997.000000, 0.000788
998.000000, 0.000735
999.000000, 0.000540
1000.000000, 0.000554
1001.000000, 0.000716
1002.000000, 0.000759
1003.000000, 0.000767
1004.000000, 0.000725
1005.000000, 0.000609
1006.000000, 0.000749
1007.000000, 0.000817
1008.000000, 0.000809
1009.000000, 0.000735
1010.000000, 0.000575
1011.000000, 0.000552
1012.000000, 0.000713
1013.000000, 0.000752
1014.000000, 0.000789
1015.000000, 0.000729
1016.000000, 0.000590
1017.000000, 0.000702
1018.000000, 0.000763
1019.000000, 0.000765
1020.000000, 0.000769
1021.000000, 0.000585
1022.000000, 0.000583
1023.000000, 0.000765
1024.000000, 0.000795
1025.000000, 0.000778
1026.000000, 0.000786
1027.000000, 0.000771
1028.000000, 0.000559
1029.000000, 0.000594
1030.000000, 0.000733
1031.000000, 0.000809
1032.000000, 0.000800
1033.000000, 0.000765
1034.000000, 0.000710
1035.000000, 0.000537
1036.000000, 0.000597
1037.000000, 0.000746
1038.000000, 0.000759
1039.000000, 0.000789
1040.000000, 0.000766
1041.000000, 0.000754
1042.000000, 0.000521
1043.000000, 0.000584
1044.000000, 0.000782
1045.000000, 0.000791
1046.000000, 0.000767
1047.000000, 0.000792
1048.000000, 0.000752
1049.000000, 0.000536
1050.000000, 0.000527
1051.000000, 0.000580
1052.000000, 0.000779
1053.000000, 0.000815
1054.000000, 0.000785
1055.000000, 0.000822
1056.000000, 0.000797
1057.000000, 0.000722
1058.000000, 0.000528
1059.000000, 0.000565
1060.000000, 0.000745
1061.000000, 0.000726
1062.000000, 0.000782
1063.000000, 0.000748
1064.000000, 0.000818
1065.000000, 0.000808
1066.000000, 0.000820
1067.000000, 0.000761
1068.000000, 0.000522
1069.000000, 0.000481
1070.000000, 0.000566
1071.000000, 0.000738
1072.000000, 0.000736
1073.000000, 0.000761
1074.000000, 0.000782
1075.000000, 0.000776
1076.000000, 0.000666
1077.000000, 0.000482
1078.000000, 0.000478
1079.000000, 0.000734
1080.000000, 0.000710
1081.000000, 0.000768
1082.000000, 0.000769
1083.000000, 0.000804
1084.000000, 0.000709
1085.000000, 0.000731
1086.000000, 0.000687
1087.000000, 0.000728
1088.000000, 0.000718
1089.000000, 0.000780
1090.000000, 0.000705
1091.000000, 0.000738
1092.000000, 0.000732
1093.000000, 0.000674
1094.000000, 0.000506
1095.000000, 0.000736
1096.000000, 0.000747
1097.000000, 0.000786
1098.000000, 0.000715
1099.000000, 0.000734
1100.000000, 0.000748
1101.000000, 0.000739
1102.000000, 0.000651
1103.000000, 0.000523
1104.000000, 0.000744
1105.000000, 0.000662
1106.000000, 0.000703
1107.000000, 0.000705
1108.000000, 0.000655
1109.000000, 0.000683
1110.000000, 0.000722
1111.000000, 0.000702
1112.000000, 0.000723
1113.000000, 0.000683
1114.000000, 0.000700
1115.000000, 0.000709
1116.000000, 0.000709
1117.000000, 0.000680
1118.000000, 0.000704
1119.000000, 0.000681
1120.000000, 0.000704
1121.000000, 0.000680
1122.000000, 0.000670
1123.000000, 0.000674
1124.000000, 0.000688
1125.000000, 0.000789
1126.000000, 0.000923
1127.000000, 0.000754
1128.000000, 0.000565
1129.000000, 0.000735
1130.000000, 0.000726
1131.000000, 0.000746
1132.000000, 0.000734
1133.000000, 0.000762
1134.000000, 0.000839
1135.000000, 0.000710
1136.000000, 0.000639
1137.000000, 0.000784
1138.000000, 0.000797
1139.000000, 0.000809
1140.000000, 0.000738
1141.000000, 0.000569
1142.000000, 0.000514
1143.000000, 0.000454
1144.000000, 0.000539
1145.000000, 0.000716
1146.000000, 0.000713
1147.000000, 0.000727
1148.000000, 0.000745
1149.000000, 0.000688
1150.000000, 0.000715
1151.000000, 0.000720
1152.000000, 0.000710
1153.000000, 0.000705
1154.000000, 0.000711
1155.000000, 0.000728
1156.000000, 0.000697
1157.000000, 0.000718
1158.000000, 0.000672
1159.000000, 0.000668
1160.000000, 0.000650
1161.000000, 0.000678
1162.000000, 0.000706
1163.000000, 0.000748
1164.000000, 0.000776
1165.000000, 0.000918
1166.000000, 0.000874
1167.000000, 0.000726
1168.000000, 0.000713
1169.000000, 0.000730
1170.000000, 0.000710
1171.000000, 0.000736
1172.000000, 0.000697
1173.000000, 0.000718
1174.000000, 0.000701
1175.000000, 0.000690
1176.000000, 0.000693
1177.000000, 0.000700
1178.000000, 0.000718
1179.000000, 0.000725
1180.000000, 0.000718
1181.000000, 0.000710
1182.000000, 0.000703
1183.000000, 0.000688
1184.000000, 0.000725
1185.000000, 0.000696
1186.000000, 0.000725
1187.000000, 0.000752
1188.000000, 0.000697
1189.000000, 0.000704
1190.000000, 0.000687
1191.000000, 0.000680
1192.000000, 0.000694
1193.000000, 0.000728
1194.000000, 0.000756
1195.000000, 0.000752
1196.000000, 0.000716
1197.000000, 0.000703
1198.000000, 0.000677
1199.000000, 0.000652
1200.000000, 0.000582
1201.000000, 0.000591
1202.000000, 0.000771
1203.000000, 0.000736
1204.000000, 0.000714
1205.000000, 0.000598
1206.000000, 0.000578
1207.000000, 0.000731
1208.000000, 0.000752
1209.000000, 0.000759
1210.000000, 0.000722
1211.000000, 0.000727
1212.000000, 0.000752
1213.000000, 0.000759
1214.000000, 0.000762
1215.000000, 0.000777
1216.000000, 0.000767
1217.000000, 0.000653
1218.000000, 0.000625
1219.000000, 0.000724
1220.000000, 0.000723
1221.000000, 0.000736
1222.000000, 0.000792
1223.000000, 0.000919
1224.000000, 0.000929
1225.000000, 0.000803
1226.000000, 0.000829
1227.000000, 0.000865
1228.000000, 0.000903
1229.000000, 0.000947
1230.000000, 0.000996
1231.000000, 0.000972
1232.000000, 0.000158
1233.000000, 0.000204
1234.000000, 0.000279
1235.000000, 0.000343
1236.000000, 0.000423
1237.000000, 0.000985
1238.000000, 0.007410
1239.000000, 0.031340
1240.000000, 0.074420
1241.000000, 0.189430
1242.000000, 0.339420
1243.000000, 0.602270
1244.000000, 1.075970
1245.000000, 1.848090
1246.000000, 4.089260
1247.000000, 12.658680
1248.000000, 31.452340
1249.000000, 53.473490
1250.000000, 68.037380
1251.000000, 76.290750
1252.000000, 80.795880
1253.000000, 81.202220
1254.000000, 80.261320
1255.000000, 81.781190
1256.000000, 86.078260
1257.000000, 90.743660
1258.000000, 93.335470
1259.000000, 93.283410
1260.000000, 91.748640
1261.000000, 90.458160
1262.000000, 90.386370
1263.000000, 91.619600
1264.000000, 93.582500
1265.000000, 95.450270
1266.000000, 96.655660
1267.000000, 96.982070
1268.000000, 96.620210
1269.000000, 96.055140
1270.000000, 95.665860
1271.000000, 95.638020
1272.000000, 96.000710
1273.000000, 96.608620
1274.000000, 97.222760
1275.000000, 97.649570
1276.000000, 97.804410
1277.000000, 97.694350
1278.000000, 97.391270
1279.000000, 97.073070
1280.000000, 96.859400
1281.000000, 96.812610
1282.000000, 96.973940
1283.000000, 97.289150
1284.000000, 97.654170
1285.000000, 98.030970
1286.000000, 98.317450
1287.000000, 98.435060
1288.000000, 98.398170
1289.000000, 98.231290
1290.000000, 97.975550
1291.000000, 97.688190
1292.000000, 97.446720
1293.000000, 97.292000
1294.000000, 97.272020
1295.000000, 97.387930
1296.000000, 97.590750
1297.000000, 97.862130
1298.000000, 98.159870
1299.000000, 98.427270
1300.000000, 98.629700
1301.000000, 98.746150
1302.000000, 98.764280
1303.000000, 98.675170
1304.000000, 98.494550
1305.000000, 98.260530
1306.000000, 98.056570
1307.000000, 97.853480
1308.000000, 97.705090
1309.000000, 97.636230
1310.000000, 97.650040
1311.000000, 97.763050
1312.000000, 97.941510
1313.000000, 98.162950
1314.000000, 98.382450
1315.000000, 98.590950
1316.000000, 98.775030
1317.000000, 98.910950
1318.000000, 98.955570
1319.000000, 98.970910
1320.000000, 98.924240
1321.000000, 98.840190
1322.000000, 98.745240
1323.000000, 98.630600
1324.000000, 98.552880
1325.000000, 98.458810
1326.000000, 98.455960
1327.000000, 98.472380
1328.000000, 98.521410
1329.000000, 98.618860
1330.000000, 98.729380
1331.000000, 98.827520
1332.000000, 98.899590
1333.000000, 98.985280
1334.000000, 99.040770
1335.000000, 99.060290
1336.000000, 99.012320
1337.000000, 98.984420
1338.000000, 98.916770
1339.000000, 98.816140
1340.000000, 98.716980
1341.000000, 98.604200
1342.000000, 98.508030
1343.000000, 98.441740
1344.000000, 98.416460
1345.000000, 98.416190
1346.000000, 98.435380
1347.000000, 98.486790
1348.000000, 98.592620
1349.000000, 98.684930
1350.000000, 98.743500
1351.000000, 98.882650
1352.000000, 99.000810
1353.000000, 99.082070
1354.000000, 99.134550
1355.000000, 99.144540
1356.000000, 99.092130
1357.000000, 99.096350
1358.000000, 99.012170
1359.000000, 98.933320
1360.000000, 98.793490
1361.000000, 98.559460
1362.000000, 98.492590
1363.000000, 98.420570
1364.000000, 98.351950
1365.000000, 98.292610
1366.000000, 98.275100
1367.000000, 98.270690
1368.000000, 98.342950
1369.000000, 98.373770
1370.000000, 98.428870
1371.000000, 98.507660
1372.000000, 98.659590
1373.000000, 98.732870
1374.000000, 98.797370
1375.000000, 98.899880
1376.000000, 98.947090
1377.000000, 98.978710
1378.000000, 99.048550
1379.000000, 99.037630
1380.000000, 98.974020
1381.000000, 98.976750
1382.000000, 98.851600
1383.000000, 98.873920
1384.000000, 98.810890
1385.000000, 98.716020
1386.000000, 98.555640
1387.000000, 98.539090
1388.000000, 98.490890
1389.000000, 98.445860
1390.000000, 98.474530
1391.000000, 98.525410
1392.000000, 98.499990
1393.000000, 98.585170
1394.000000, 98.599740
1395.000000, 98.652570
1396.000000, 98.775680
1397.000000, 98.810000
1398.000000, 98.878220
1399.000000, 99.028260
1400.000000, 99.132500
1401.000000, 99.095590
1402.000000, 99.089980
1403.000000, 99.107480
1404.000000, 99.115300
1405.000000, 99.092130
1406.000000, 99.130570
1407.000000, 99.105340
1408.000000, 98.991260
1409.000000, 98.980320
1410.000000, 98.930630
1411.000000, 98.862390
1412.000000, 98.781680
1413.000000, 98.749300
1414.000000, 98.681810
1415.000000, 98.671510
1416.000000, 98.708610
1417.000000, 98.701620
1418.000000, 98.713530
1419.000000, 98.725270
1420.000000, 98.767390
1421.000000, 98.798660
1422.000000, 98.814610
1423.000000, 98.870910
1424.000000, 98.912530
1425.000000, 98.975580
1426.000000, 99.039190
1427.000000, 99.091580
1428.000000, 99.130800
1429.000000, 99.151190
1430.000000, 99.195550
1431.000000, 99.182070
1432.000000, 99.201320
1433.000000, 99.207120
1434.000000, 99.206990
1435.000000, 99.201520
1436.000000, 99.179240
1437.000000, 99.164260
1438.000000, 99.149270
1439.000000, 99.115350
1440.000000, 99.091610
1441.000000, 99.113560
1442.000000, 99.075220
1443.000000, 99.107210
1444.000000, 99.086200
1445.000000, 99.090040
1446.000000, 99.094210
1447.000000, 99.133540
1448.000000, 99.144310
1449.000000, 99.128520
1450.000000, 99.151400
1451.000000, 99.168830
1452.000000, 99.158590
1453.000000, 99.181360
1454.000000, 99.211920
1455.000000, 99.220210
1456.000000, 99.254830
1457.000000, 99.219530
1458.000000, 99.205200
1459.000000, 99.229720
1460.000000, 99.198240
1461.000000, 99.213630
1462.000000, 99.199970
1463.000000, 99.147270
1464.000000, 99.196220
1465.000000, 99.147660
1466.000000, 99.127480
1467.000000, 99.084130
1468.000000, 99.091750
1469.000000, 99.073270
1470.000000, 99.091150
1471.000000, 99.084880
1472.000000, 99.081620
1473.000000, 99.097430
1474.000000, 99.103160
1475.000000, 99.110760
1476.000000, 99.150180
1477.000000, 99.162910
1478.000000, 99.173310
1479.000000, 99.233550
1480.000000, 99.231750
1481.000000, 99.256660
1482.000000, 99.280710
1483.000000, 99.289850
1484.000000, 99.284740
1485.000000, 99.276210
1486.000000, 99.284770
1487.000000, 99.254400
1488.000000, 99.248250
1489.000000, 99.222020
1490.000000, 99.178710
1491.000000, 99.170800
1492.000000, 99.119360
1493.000000, 99.086490
1494.000000, 99.074500
1495.000000, 99.012100
1496.000000, 98.961450
1497.000000, 98.925160
1498.000000, 98.880510
1499.000000, 98.839700
1500.000000, 98.808210
1501.000000, 98.756590
1502.000000, 98.753330
1503.000000, 98.756510
1504.000000, 98.717220
1505.000000, 98.689530
1506.000000, 98.685880
1507.000000, 98.705170
1508.000000, 98.726190
1509.000000, 98.728840
1510.000000, 98.744710
1511.000000, 98.791420
1512.000000, 98.807170
1513.000000, 98.841440
1514.000000, 98.887230
1515.000000, 98.900460
1516.000000, 98.895600
1517.000000, 98.939880
1518.000000, 98.980490
1519.000000, 99.012080
1520.000000, 99.045140
1521.000000, 99.054640
1522.000000, 99.049320
1523.000000, 99.046990
1524.000000, 99.094650
1525.000000, 99.092720
1526.000000, 99.106380
1527.000000, 99.099370
1528.000000, 99.108860
1529.000000, 99.104530
1530.000000, 99.106700
1531.000000, 99.099000
1532.000000, 99.074930
1533.000000, 99.090540
1534.000000, 99.091160
1535.000000, 99.095290
1536.000000, 99.084100
1537.000000, 99.133850
1538.000000, 99.122100
1539.000000, 99.129190
1540.000000, 99.145190
1541.000000, 99.163360
1542.000000, 99.185350
1543.000000, 99.206120
1544.000000, 99.194850
1545.000000, 99.216040
1546.000000, 99.253560
1547.000000, 99.283360
1548.000000, 99.279800
1549.000000, 99.292220
1550.000000, 99.311400
1551.000000, 99.326330
1552.000000, 99.335940
1553.000000, 99.308470
1554.000000, 99.314500
1555.000000, 99.333310
1556.000000, 99.313570
1557.000000, 99.303780
1558.000000, 99.270540
1559.000000, 99.263000
1560.000000, 99.233850
1561.000000, 99.197270
1562.000000, 99.186270
1563.000000, 99.157970
1564.000000, 99.144350
1565.000000, 99.108610
1566.000000, 99.063700
1567.000000, 99.019740
1568.000000, 98.985560
1569.000000, 98.966160
1570.000000, 98.942370
1571.000000, 98.891300
1572.000000, 98.857990
1573.000000, 98.850350
1574.000000, 98.824410
1575.000000, 98.817620
1576.000000, 98.822800
1577.000000, 98.801870
1578.000000, 98.794810
1579.000000, 98.793720
1580.000000, 98.790130
1581.000000, 98.809130
1582.000000, 98.834760
1583.000000, 98.834690
1584.000000, 98.847670
1585.000000, 98.866160
1586.000000, 98.888370
1587.000000, 98.937340
1588.000000, 98.969530
1589.000000, 98.989170
1590.000000, 99.000760
1591.000000, 99.023270
1592.000000, 99.047030
1593.000000, 99.064370
1594.000000, 99.072010
1595.000000, 99.078920
1596.000000, 99.088810
1597.000000, 99.087500
1598.000000, 99.100550
1599.000000, 99.108210
1600.000000, 99.103880
1601.000000, 99.105150
1602.000000, 99.120640
1603.000000, 99.115810
1604.000000, 99.113310
1605.000000, 99.108520
1606.000000, 99.130350
1607.000000, 99.148850
1608.000000, 99.135510
1609.000000, 99.124950
1610.000000, 99.124250
1611.000000, 99.116070
1612.000000, 99.118410
1613.000000, 99.132670
1614.000000, 99.135960
1615.000000, 99.147130
1616.000000, 99.164170
1617.000000, 99.163500
1618.000000, 99.179050
1619.000000, 99.200400
1620.000000, 99.196900
1621.000000, 99.195410
1622.000000, 99.225120
1623.000000, 99.254290
1624.000000, 99.263990
1625.000000, 99.276560
1626.000000, 99.305620
1627.000000, 99.313660
1628.000000, 99.322420
1629.000000, 99.332680
1630.000000, 99.333480
1631.000000, 99.320230
1632.000000, 99.345620
1633.000000, 99.381800
1634.000000, 99.367980
1635.000000, 99.359460
1636.000000, 99.357300
1637.000000, 99.349420
1638.000000, 99.339810
1639.000000, 99.347600
1640.000000, 99.351140
1641.000000, 99.327970
1642.000000, 99.304230
1643.000000, 99.272180
1644.000000, 99.260650
1645.000000, 99.232020
1646.000000, 99.221320
1647.000000, 99.223150
1648.000000, 99.198720
1649.000000, 99.181180
1650.000000, 99.160760
1651.000000, 99.142990
1652.000000, 99.125340
1653.000000, 99.113170
1654.000000, 99.112380
1655.000000, 99.110360
1656.000000, 99.117790
1657.000000, 99.112450
1658.000000, 99.111530
1659.000000, 99.105590
1660.000000, 99.102190
1661.000000, 99.106130
1662.000000, 99.102410
1663.000000, 99.121170
1664.000000, 99.142430
1665.000000, 99.153820
1666.000000, 99.156310
1667.000000, 99.178050
1668.000000, 99.198630
1669.000000, 99.203370
1670.000000, 99.214530
1671.000000, 99.225960
1672.000000, 99.235990
1673.000000, 99.257050
1674.000000, 99.278120
1675.000000, 99.300810
1676.000000, 99.314700
1677.000000, 99.324950
1678.000000, 99.339250
1679.000000, 99.333990
1680.000000, 99.329850
1681.000000, 99.341300
1682.000000, 99.358710
1683.000000, 99.375400
1684.000000, 99.355520
1685.000000, 99.349370
1686.000000, 99.354660
1687.000000, 99.346450
1688.000000, 99.337090
1689.000000, 99.319940
1690.000000, 99.302430
1691.000000, 99.281550
1692.000000, 99.248030
1693.000000, 99.247160
1694.000000, 99.237440
1695.000000, 99.205430
1696.000000, 99.197240
1697.000000, 99.201910
1698.000000, 99.194780
1699.000000, 99.176930
1700.000000, 99.164180
1701.000000, 99.149650
1702.000000, 99.149840
1703.000000, 99.142730
1704.000000, 99.123710
1705.000000, 99.132310
1706.000000, 99.156950
1707.000000, 99.158210
1708.000000, 99.142860
1709.000000, 99.155650
1710.000000, 99.153030
1711.000000, 99.165020
1712.000000, 99.182240
1713.000000, 99.205170
1714.000000, 99.208750
1715.000000, 99.214240
1716.000000, 99.218290
1717.000000, 99.228070
1718.000000, 99.208500
1719.000000, 99.243660
1720.000000, 99.258590
1721.000000, 99.275470
1722.000000, 99.272180
1723.000000, 99.268150
1724.000000, 99.278170
1725.000000, 99.307290
1726.000000, 99.314020
1727.000000, 99.328720
1728.000000, 99.318560
1729.000000, 99.304200
1730.000000, 99.290410
1731.000000, 99.290050
1732.000000, 99.300080
1733.000000, 99.285470
1734.000000, 99.288920
1735.000000, 99.294200
1736.000000, 99.264950
1737.000000, 99.259760
1738.000000, 99.249090
1739.000000, 99.249190
1740.000000, 99.240090
1741.000000, 99.229570
1742.000000, 99.222950
1743.000000, 99.199470
1744.000000, 99.190600
1745.000000, 99.191020
1746.000000, 99.179280
1747.000000, 99.187140
1748.000000, 99.155060
1749.000000, 99.139060
1750.000000, 99.129220
1751.000000, 99.133890
1752.000000, 99.135490
1753.000000, 99.125740
1754.000000, 99.120780
1755.000000, 99.139520
1756.000000, 99.136980
1757.000000, 99.140630
1758.000000, 99.150000
1759.000000, 99.143410
1760.000000, 99.150540
1761.000000, 99.152730
1762.000000, 99.176730
1763.000000, 99.171990
1764.000000, 99.207270
1765.000000, 99.207830
1766.000000, 99.220970
1767.000000, 99.234260
1768.000000, 99.207580
1769.000000, 99.243510
1770.000000, 99.279280
1771.000000, 99.293290
1772.000000, 99.295670
1773.000000, 99.289060
1774.000000, 99.321700
1775.000000, 99.326650
1776.000000, 99.350710
1777.000000, 99.362030
1778.000000, 99.353290
1779.000000, 99.323240
1780.000000, 99.309580
1781.000000, 99.324110
1782.000000, 99.345410
1783.000000, 99.354250
1784.000000, 99.361250
1785.000000, 99.360710
1786.000000, 99.352700
1787.000000, 99.347180
1788.000000, 99.332740
1789.000000, 99.330440
1790.000000, 99.302680
1791.000000, 99.293110
1792.000000, 99.286570
1793.000000, 99.267560
1794.000000, 99.248760
1795.000000, 99.257900
1796.000000, 99.246300
1797.000000, 99.219520
1798.000000, 99.234610
1799.000000, 99.203310
1800.000000, 99.232900
1801.000000, 99.215770
1802.000000, 99.208840
1803.000000, 99.204380
1804.000000, 99.207550
1805.000000, 99.188200
1806.000000, 99.190340
1807.000000, 99.151860
1808.000000, 99.179560
1809.000000, 99.173280
1810.000000, 99.163870
1811.000000, 99.200010
1812.000000, 99.185550
1813.000000, 99.188390
1814.000000, 99.126590
1815.000000, 99.091500
1816.000000, 99.179370
1817.000000, 99.185490
1818.000000, 99.248340
1819.000000, 99.273480
1820.000000, 99.205350
1821.000000, 99.218360
1822.000000, 99.256480
1823.000000, 99.240080
1824.000000, 99.211610
1825.000000, 99.275120
1826.000000, 99.243850
1827.000000, 99.282800
1828.000000, 99.278830
1829.000000, 99.267290
1830.000000, 99.324330
1831.000000, 99.357550
1832.000000, 99.349850
1833.000000, 99.367960
1834.000000, 99.268080
1835.000000, 99.295620
1836.000000, 99.264670
1837.000000, 99.321680
1838.000000, 99.346650
1839.000000, 99.335030
1840.000000, 99.355300
1841.000000, 99.333440
1842.000000, 99.414000
1843.000000, 99.385330
1844.000000, 99.338190
1845.000000, 99.433320
1846.000000, 99.316080
1847.000000, 99.348000
1848.000000, 99.342070
1849.000000, 99.274690
1850.000000, 99.330570
1851.000000, 99.289030
1852.000000, 99.315460
1853.000000, 99.305430
1854.000000, 99.278490
1855.000000, 99.243560
1856.000000, 99.287610
1857.000000, 99.270440
1858.000000, 99.293120
1859.000000, 99.306990
1860.000000, 99.282460
1861.000000, 99.270060
1862.000000, 99.256780
1863.000000, 99.278420
1864.000000, 99.178310
1865.000000, 99.252210
1866.000000, 99.205060
1867.000000, 99.329070
1868.000000, 99.285570
1869.000000, 99.288250
1870.000000, 99.302020
1871.000000, 99.281640
1872.000000, 99.216360
1873.000000, 99.332720
1874.000000, 99.315530
1875.000000, 99.278600
1876.000000, 99.315750
1877.000000, 99.305240
1878.000000, 99.268390
1879.000000, 99.303240
1880.000000, 99.304090
1881.000000, 99.309480
1882.000000, 99.325920
1883.000000, 99.324990
1884.000000, 99.315690
1885.000000, 99.336780
1886.000000, 99.387310
1887.000000, 99.367260
1888.000000, 99.346670
1889.000000, 99.345790
1890.000000, 99.345840
1891.000000, 99.359870
1892.000000, 99.368960
1893.000000, 99.369030
1894.000000, 99.369050
1895.000000, 99.354920
1896.000000, 99.354470
1897.000000, 99.375730
1898.000000, 99.415340
1899.000000, 99.385320
1900.000000, 99.389160
1901.000000, 99.374270
1902.000000, 99.356540
1903.000000, 99.334480
1904.000000, 99.371750
1905.000000, 99.342500
1906.000000, 99.302660
1907.000000, 99.360430
1908.000000, 99.353130
1909.000000, 99.364160
1910.000000, 99.343090
1911.000000, 99.364560
1912.000000, 99.343620
1913.000000, 99.329440
1914.000000, 99.344060
1915.000000, 99.331020
1916.000000, 99.343480
1917.000000, 99.292240
1918.000000, 99.287370
1919.000000, 99.260140
1920.000000, 99.261880
1921.000000, 99.282760
1922.000000, 99.294360
1923.000000, 99.291720
1924.000000, 99.270220
1925.000000, 99.273930
1926.000000, 99.273540
1927.000000, 99.272570
1928.000000, 99.257520
1929.000000, 99.289540
1930.000000, 99.289090
1931.000000, 99.260950
1932.000000, 99.305470
1933.000000, 99.303300
1934.000000, 99.279510
1935.000000, 99.290330
1936.000000, 99.286300
1937.000000, 99.291750
1938.000000, 99.296200
1939.000000, 99.303020
1940.000000, 99.306640
1941.000000, 99.297300
1942.000000, 99.342130
1943.000000, 99.328480
1944.000000, 99.290650
1945.000000, 99.308540
1946.000000, 99.297130
1947.000000, 99.292490
1948.000000, 99.335850
1949.000000, 99.313950
1950.000000, 99.310530
1951.000000, 99.322230
1952.000000, 99.332860
1953.000000, 99.311800
1954.000000, 99.313970
1955.000000, 99.320310
1956.000000, 99.289460
1957.000000, 99.297770
1958.000000, 99.313340
1959.000000, 99.316850
1960.000000, 99.311240
1961.000000, 99.325380
1962.000000, 99.327750
1963.000000, 99.323250
1964.000000, 99.315190
1965.000000, 99.294470
1966.000000, 99.292090
1967.000000, 99.293710
1968.000000, 99.316400
1969.000000, 99.312890
1970.000000, 99.285820
1971.000000, 99.261960
1972.000000, 99.279790
1973.000000, 99.285790
1974.000000, 99.289360
1975.000000, 99.296450
1976.000000, 99.289500
1977.000000, 99.293040
1978.000000, 99.296560
1979.000000, 99.289720
1980.000000, 99.278990
1981.000000, 99.269090
1982.000000, 99.273280
1983.000000, 99.263480
1984.000000, 99.272030
1985.000000, 99.281560
1986.000000, 99.275950
1987.000000, 99.262600
1988.000000, 99.247080
1989.000000, 99.250460
1990.000000, 99.255470
1991.000000, 99.252290
1992.000000, 99.272190
1993.000000, 99.288080
1994.000000, 99.282690
1995.000000, 99.278110
1996.000000, 99.285040
1997.000000, 99.286110
1998.000000, 99.272180
1999.000000, 99.275520
2000.000000, 99.288370
2001.000000, 99.304900
2002.000000, 99.320370
2003.000000, 99.310440
2004.000000, 99.284940
2005.000000, 99.281830
2006.000000, 99.299730
2007.000000, 99.304100
2008.000000, 99.296360
2009.000000, 99.313000
2010.000000, 99.335900
2011.000000, 99.334070
2012.000000, 99.338970
2013.000000, 99.340550
2014.000000, 99.340410
2015.000000, 99.340880
2016.000000, 99.325450
2017.000000, 99.327740
2018.000000, 99.340270
2019.000000, 99.328770
2020.000000, 99.320480
2021.000000, 99.323820
2022.000000, 99.332650
2023.000000, 99.331680
2024.000000, 99.326270
2025.000000, 99.332210
2026.000000, 99.333260
2027.000000, 99.331810
2028.000000, 99.311180
2029.000000, 99.310730
2030.000000, 99.308120
2031.000000, 99.278190
2032.000000, 99.269980
2033.000000, 99.277280
2034.000000, 99.305180
2035.000000, 99.301050
2036.000000, 99.271560
2037.000000, 99.259560
2038.000000, 99.263230
2039.000000, 99.290690
2040.000000, 99.291960
2041.000000, 99.276380
2042.000000, 99.265000
2043.000000, 99.267000
2044.000000, 99.259840
2045.000000, 99.244080
2046.000000, 99.247710
2047.000000, 99.248070
2048.000000, 99.223610
2049.000000, 99.243120
2050.000000, 99.249880
2051.000000, 99.244940
2052.000000, 99.240960
2053.000000, 99.222700
2054.000000, 99.229310
2055.000000, 99.232980
2056.000000, 99.223910
2057.000000, 99.227830
2058.000000, 99.232080
2059.000000, 99.228250
2060.000000, 99.232520
2061.000000, 99.216030
2062.000000, 99.215490
2063.000000, 99.254690
2064.000000, 99.255820
2065.000000, 99.243800
2066.000000, 99.232880
2067.000000, 99.248280
2068.000000, 99.259520
2069.000000, 99.258890
2070.000000, 99.274870
2071.000000, 99.284900
2072.000000, 99.295770
2073.000000, 99.302790
2074.000000, 99.290410
2075.000000, 99.288230
2076.000000, 99.304360
2077.000000, 99.307390
2078.000000, 99.323820
2079.000000, 99.316790
2080.000000, 99.322300
2081.000000, 99.326310
2082.000000, 99.340450
2083.000000, 99.354520
2084.000000, 99.351090
2085.000000, 99.354730
2086.000000, 99.354930
2087.000000, 99.388240
2088.000000, 99.372610
2089.000000, 99.359540
2090.000000, 99.361860
2091.000000, 99.352920
2092.000000, 99.359750
2093.000000, 99.376190
2094.000000, 99.393730
2095.000000, 99.396850
2096.000000, 99.391450
2097.000000, 99.441210
2098.000000, 99.433500
2099.000000, 99.418270
2100.000000, 99.397680
2101.000000, 99.401970
2102.000000, 99.409150
2103.000000, 99.407390
2104.000000, 99.400550
2105.000000, 99.408480
2106.000000, 99.412090
2107.000000, 99.431590
2108.000000, 99.417290
2109.000000, 99.422400
2110.000000, 99.422850
2111.000000, 99.401200
2112.000000, 99.414150
2113.000000, 99.399030
2114.000000, 99.414990
2115.000000, 99.431460
2116.000000, 99.430190
2117.000000, 99.416280
2118.000000, 99.405000
2119.000000, 99.413160
2120.000000, 99.413470
2121.000000, 99.421560
2122.000000, 99.428490
2123.000000, 99.394580
2124.000000, 99.401110
2125.000000, 99.406070
2126.000000, 99.389540
2127.000000, 99.396920
2128.000000, 99.371970
2129.000000, 99.382190
2130.000000, 99.383040
2131.000000, 99.360290
2132.000000, 99.382290
2133.000000, 99.385740
2134.000000, 99.381300
2135.000000, 99.387470
2136.000000, 99.394270
2137.000000, 99.371930
2138.000000, 99.390050
2139.000000, 99.377930
2140.000000, 99.369720
2141.000000, 99.359190
2142.000000, 99.361550
2143.000000, 99.357990
2144.000000, 99.337260
2145.000000, 99.328330
2146.000000, 99.335410
2147.000000, 99.325950
2148.000000, 99.307270
2149.000000, 99.283510
2150.000000, 99.312010
2151.000000, 99.307870
2152.000000, 99.268900
2153.000000, 99.254850
2154.000000, 99.269390
2155.000000, 99.251530
2156.000000, 99.230470
2157.000000, 99.240410
2158.000000, 99.225510
2159.000000, 99.235870
2160.000000, 99.190730
2161.000000, 99.207950
2162.000000, 99.200360
2163.000000, 99.197590
2164.000000, 99.192260
2165.000000, 99.139130
2166.000000, 99.126710
2167.000000, 99.106210
2168.000000, 99.115530
2169.000000, 99.104210
2170.000000, 99.099400
2171.000000, 99.071240
2172.000000, 99.065480
2173.000000, 99.049790
2174.000000, 99.040860
2175.000000, 99.000890
2176.000000, 98.989690
2177.000000, 98.977250
2178.000000, 98.990250
2179.000000, 98.940440
2180.000000, 98.935270
2181.000000, 98.915340
2182.000000, 98.920410
2183.000000, 98.860350
2184.000000, 98.841970
2185.000000, 98.835120
2186.000000, 98.799440
2187.000000, 98.800950
2188.000000, 98.774960
2189.000000, 98.754100
2190.000000, 98.738080
2191.000000, 98.722560
2192.000000, 98.728870
2193.000000, 98.658970
2194.000000, 98.632630
2195.000000, 98.632480
2196.000000, 98.622430
2197.000000, 98.634320
2198.000000, 98.567670
2199.000000, 98.534830
2200.000000, 98.527410
2200.900000, 98.504890
2201.710000, 98.482360
2202.510000, 98.447930
2203.320000, 98.423510
2204.120000, 98.402580
2204.920000, 98.355550
2205.730000, 98.319030
2206.530000, 98.300900
2207.330000, 98.268370
2208.140000, 98.240850
2208.940000, 98.231920
2209.740000, 98.215190
2210.550000, 98.179770
2211.350000, 98.150340
2212.150000, 98.140810
2212.960000, 98.130690
2213.760000, 98.105260
2214.560000, 98.085230
2215.370000, 98.072610
2216.170000, 98.048680
2216.980000, 98.018550
2217.780000, 97.991330
2218.580000, 97.969800
2219.390000, 97.961370
2220.190000, 97.950950
2220.990000, 97.928320
2221.800000, 97.910990
2222.600000, 97.885770
2223.400000, 97.850640
2224.210000, 97.823110
2225.010000, 97.797290
2225.810000, 97.778660
2226.620000, 97.746430
2227.420000, 97.710910
2228.220000, 97.682980
2229.030000, 97.653250
2229.830000, 97.627430
2230.640000, 97.602000
2231.440000, 97.568370
2232.240000, 97.530550
2233.050000, 97.503920
2233.850000, 97.466190
2234.650000, 97.433770
2235.460000, 97.401540
2236.260000, 97.363710
2237.060000, 97.328190
2237.870000, 97.279960
2238.670000, 97.231930
2239.470000, 97.187610
2240.280000, 97.149880
2241.080000, 97.106850
2241.890000, 97.057730
2242.690000, 97.020600
2243.490000, 96.980570
2244.300000, 96.929450
2245.100000, 96.876720
2245.900000, 96.840590
2246.710000, 96.803270
2247.510000, 96.751740
2248.310000, 96.702020
2249.120000, 96.649190
2249.920000, 96.595160
2250.720000, 96.554940
2251.530000, 96.517710
2252.330000, 96.461680
2253.130000, 96.388360
2253.940000, 96.326030
2254.740000, 96.278100
2255.550000, 96.227080
2256.350000, 96.171150
2257.150000, 96.100320
2257.960000, 96.032300
2258.760000, 95.980170
2259.560000, 95.917740
2260.370000, 95.852820
2261.170000, 95.792090
2261.970000, 95.724360
2262.780000, 95.669840
2263.580000, 95.609110
2264.380000, 95.535980
2265.190000, 95.468660
2265.990000, 95.405230
2266.800000, 95.343800
2267.600000, 95.270180
2268.400000, 95.190550
2269.210000, 95.114920
2270.010000, 95.035600
2270.810000, 94.962470
2271.620000, 94.904440
2272.420000, 94.834220
2273.220000, 94.748890
2274.030000, 94.665460
2274.830000, 94.579640
2275.630000, 94.498310
2276.440000, 94.422480
2277.240000, 94.341860
2278.040000, 94.246030
2278.850000, 94.160700
2279.650000, 94.080280
2280.460000, 93.990450
2281.260000, 93.902320
2282.060000, 93.820900
2282.870000, 93.731970
2283.670000, 93.646840
2284.470000, 93.560320
2285.280000, 93.469290
2286.080000, 93.373560
2286.880000, 93.281340
2287.690000, 93.194010
2288.490000, 93.097480
2289.290000, 93.004360
2290.100000, 92.904530
2290.900000, 92.789000
2291.700000, 92.684580
2292.510000, 92.582150
2293.310000, 92.478520
2294.120000, 92.385600
2294.920000, 92.284970
2295.720000, 92.189040
2296.530000, 92.095420
2297.330000, 91.988790
2298.130000, 91.873760
2298.940000, 91.760340
2299.740000, 91.648810
2300.540000, 91.540280
2301.350000, 91.432560
2302.150000, 91.318630
2302.950000, 91.208910
2303.760000, 91.115980
2304.560000, 91.021650
2305.370000, 90.897930
2306.170000, 90.769800
2306.970000, 90.657270
2307.780000, 90.545050
2308.580000, 90.428920
2309.380000, 90.303090
2310.190000, 90.183070
2310.990000, 90.076340
2311.790000, 89.966810
2312.600000, 89.856590
2313.400000, 89.740060
2314.200000, 89.624530
2315.010000, 89.514710
2315.810000, 89.401080
2316.610000, 89.281150
2317.420000, 89.157430
2318.220000, 89.044500
2319.030000, 88.934570
2319.830000, 88.820050
2320.630000, 88.707220
2321.440000, 88.592890
2322.240000, 88.481670
2323.040000, 88.363040
2323.850000, 88.238810
2324.650000, 88.114490
2325.450000, 88.001960
2326.260000, 87.899930
2327.060000, 87.781210
2327.860000, 87.656980
2328.670000, 87.545350
2329.470000, 87.440530
2330.270000, 87.332400
2331.080000, 87.228670
2331.880000, 87.113650
2332.690000, 86.994120
2333.490000, 86.887790
2334.290000, 86.786870
2335.100000, 86.686140
2335.900000, 86.582910
2336.700000, 86.480790
2337.510000, 86.380860
2338.310000, 86.275930
2339.110000, 86.167910
2339.920000, 86.061080
2340.720000, 85.965750
2341.520000, 85.877730
2342.330000, 85.781400
2343.130000, 85.683770
2343.940000, 85.587250
2344.740000, 85.495120
2345.540000, 85.413090
2346.350000, 85.331770
2347.150000, 85.240140
2347.950000, 85.142610
2348.760000, 85.056690
2349.560000, 84.975760
2350.360000, 84.892430
2351.170000, 84.809710
2351.970000, 84.726680
2352.770000, 84.644350
2353.580000, 84.566330
2354.380000, 84.488100
2355.180000, 84.407880
2355.990000, 84.330950
2356.790000, 84.263120
2357.600000, 84.191200
2358.400000, 84.109970
2359.200000, 84.031040
2360.010000, 83.961320
2360.810000, 83.901690
2361.610000, 83.839210
2362.420000, 83.768030
2363.220000, 83.699950
2364.020000, 83.632970
2364.830000, 83.576490
2365.630000, 83.525410
2366.430000, 83.466130
2367.240000, 83.406550
2368.040000, 83.347980
2368.850000, 83.286600
2369.650000, 83.223520
2370.450000, 83.162140
2371.260000, 83.105660
2372.060000, 83.051280
2372.860000, 82.991900
2373.670000, 82.935420
2374.470000, 82.890140
2375.270000, 82.841760
2376.080000, 82.781980
2376.880000, 82.722400
2377.680000, 82.673020
2378.490000, 82.621440
2379.290000, 82.561770
2380.090000, 82.508990
2380.900000, 82.454410
2381.700000, 82.395230
2382.510000, 82.339750
2383.310000, 82.282570
2384.110000, 82.225290
2384.920000, 82.168010
2385.720000, 82.112130
2386.520000, 82.049150
2387.330000, 81.979070
2388.130000, 81.913190
2388.930000, 81.853510
2389.740000, 81.793830
2390.540000, 81.730660
2391.340000, 81.660380
2392.150000, 81.590400
2392.950000, 81.527020
2393.750000, 81.462140
2394.560000, 81.394960
2395.360000, 81.317880
2396.170000, 81.241300
2396.970000, 81.171820
2397.770000, 81.093640
2398.580000, 81.010460
2399.380000, 80.929380
2400.180000, 80.845600
2400.990000, 80.754330
2401.790000, 80.659550
2402.590000, 80.570070
2403.400000, 80.483190
2404.200000, 80.392510
2405.000000, 80.296530
2405.810000, 80.195950
2406.610000, 80.095870
2407.420000, 79.995990
2408.220000, 79.894410
2409.020000, 79.794430
2409.830000, 79.686950
2410.630000, 79.568870
2411.430000, 79.450990
2412.240000, 79.339620
2413.040000, 79.230940
2413.840000, 79.111060
2414.650000, 78.982180
2415.450000, 78.862800
2416.250000, 78.747620
2417.060000, 78.621540
2417.860000, 78.488960
2418.660000, 78.360380
2419.470000, 78.230600
2420.270000, 78.093420
2421.080000, 77.954840
2421.880000, 77.818160
2422.680000, 77.678580
2423.490000, 77.536210
2424.290000, 77.391330
2425.090000, 77.246150
2425.900000, 77.102170
2426.700000, 76.954190
2427.500000, 76.804910
2428.310000, 76.660630
2429.110000, 76.513850
2429.910000, 76.358370
2430.720000, 76.199090
2431.520000, 76.042010
2432.320000, 75.889530
2433.130000, 75.738650
2433.930000, 75.583670
2434.740000, 75.427100
2435.540000, 75.266020
2436.340000, 75.102440
2437.150000, 74.941560
2437.950000, 74.788080
2438.750000, 74.640300
2439.560000, 74.481120
2440.360000, 74.310040
2441.160000, 74.146460
2441.970000, 73.991380
2442.770000, 73.835900
2443.570000, 73.682920
2444.380000, 73.527340
2445.180000, 73.368870
2445.990000, 73.212390
2446.790000, 73.052010
2447.590000, 72.897330
2448.400000, 72.753350
2449.200000, 72.602670
2450.000000, 72.443490
2450.810000, 72.287910
2451.610000, 72.134830
2452.410000, 71.979150
2453.220000, 71.824970
2454.020000, 71.675390
2454.820000, 71.533910
2455.630000, 71.397130
2456.430000, 71.258060
2457.230000, 71.119580
2458.040000, 70.983900
2458.840000, 70.846520
2459.650000, 70.709540
2460.450000, 70.575560
2461.250000, 70.449380
2462.060000, 70.328200
2462.860000, 70.203620
2463.660000, 70.076840
2464.470000, 69.952660
2465.270000, 69.828180
2466.070000, 69.706000
2466.880000, 69.589220
2467.680000, 69.481650
2468.480000, 69.375970
2469.290000, 69.265690
2470.090000, 69.157210
2470.890000, 69.052830
2471.700000, 68.950150
2472.500000, 68.844470
2473.310000, 68.740390
2474.110000, 68.647510
2474.910000, 68.559830
2475.720000, 68.474350
2476.520000, 68.395570
2477.320000, 68.318890
2478.130000, 68.238920
2478.930000, 68.156040
2479.730000, 68.069860
2480.540000, 67.979480
2481.340000, 67.894200
2482.140000, 67.823720
2482.950000, 67.763940
2483.750000, 67.705660
2484.560000, 67.637980
2485.360000, 67.561000
2486.160000, 67.492920
2486.970000, 67.436240
2487.770000, 67.381360
2488.570000, 67.322780
2489.380000, 67.266010
2490.180000, 67.216230
2490.980000, 67.169150
2491.790000, 67.122070
2492.590000, 67.072390
2493.390000, 67.022710
2494.200000, 66.978930
2495.000000, 66.935350
2495.800000, 66.890270
2496.610000, 66.848490
2497.410000, 66.807510
2498.220000, 66.770330
2499.020000, 66.740750
2499.820000, 66.706370
2500.630000, 66.665700
2501.430000, 66.626220
2502.230000, 66.591140
2503.040000, 66.553960
2503.840000, 66.513980
2504.640000, 66.479100
2505.450000, 66.447320
2506.250000, 66.408240
2507.050000, 66.364460
2507.860000, 66.331680
2508.660000, 66.307400
2509.470000, 66.281820
2510.270000, 66.249840
2511.070000, 66.206660
2511.880000, 66.160690
2512.680000, 66.123810
2513.480000, 66.088830
2514.290000, 66.053450
2515.090000, 66.014970
2515.890000, 65.967890
2516.700000, 65.917610
2517.500000, 65.872930
2518.300000, 65.835550
2519.110000, 65.798870
2519.910000, 65.750890
2520.710000, 65.695310
2521.520000, 65.639630
2522.320000, 65.585860
2523.130000, 65.539680
2523.930000, 65.494600
2524.730000, 65.430620
2525.540000, 65.361740
2526.340000, 65.299760
2527.140000, 65.234380
2527.950000, 65.159000
2528.750000, 65.085720
2529.550000, 65.020840
2530.360000, 64.962360
2531.160000, 64.901280
2531.960000, 64.824400
2532.770000, 64.735920
2533.570000, 64.639150
2534.370000, 64.551370
2535.180000, 64.484090
2535.980000, 64.402210
2536.790000, 64.287830
2537.590000, 64.177950
2538.390000, 64.084870
2539.200000, 63.986190
2540.000000, 63.882410
2540.800000, 63.782530
2541.610000, 63.682750
2542.410000, 63.577670
2543.210000, 63.458290
2544.020000, 63.334010
2544.820000, 63.210540
2545.620000, 63.085760
2546.430000, 62.980980
2547.230000, 62.881600
2548.040000, 62.746920
2548.840000, 62.580040
2549.640000, 62.443260
2550.450000, 62.323580
2551.250000, 62.185300
2552.050000, 62.057820
2552.860000, 61.922740
2553.660000, 61.748760
2554.460000, 61.591380
2555.270000, 61.452700
2556.070000, 61.308430
2556.870000, 61.163850
2557.680000, 61.024570
2558.480000, 60.890190
2559.280000, 60.765910
2560.090000, 60.645430
2560.890000, 60.478950
2561.700000, 60.276770
2562.500000, 60.099890
2563.300000, 59.947510
2564.110000, 59.804130
2564.910000, 59.614850
2565.710000, 59.419070
2566.520000, 59.272200
2567.320000, 59.136820
2568.120000, 59.002740
2568.930000, 58.879260
2569.730000, 58.703280
2570.530000, 58.479300
2571.340000, 58.317320
2572.140000, 58.199340
2572.940000, 58.068360
2573.750000, 57.869080
2574.550000, 57.675100
2575.360000, 57.536620
2576.160000, 57.415840
2576.960000, 57.243660
2577.770000, 57.021390
2578.570000, 56.865910
2579.370000, 56.750830
2580.180000, 56.634650
2580.980000, 56.485170
2581.780000, 56.291390
2582.590000, 56.171510
2583.390000, 56.069030
2584.190000, 55.846850
2585.000000, 55.615170
2585.800000, 55.525290
2586.610000, 55.446610
2587.410000, 55.298030
2588.210000, 55.117950
2589.020000, 54.983680
2589.820000, 54.828200
2590.620000, 54.690720
2591.430000, 54.596740
2592.230000, 54.498660
2593.030000, 54.386580
2593.840000, 54.296000
2594.640000, 54.186720
2595.440000, 53.959940
2596.250000, 53.781860
2597.050000, 53.678880
2597.850000, 53.581600
2598.660000, 53.476520
2599.460000, 53.385550
2600.270000, 53.306670
2601.070000, 53.217590
2601.870000, 53.091710
2602.680000, 52.986830
2603.480000, 52.912950
2604.280000, 52.824670
2605.090000, 52.726590
2605.890000, 52.605510
2606.690000, 52.503330
2607.500000, 52.418650
2608.300000, 52.334770
2609.100000, 52.271490
2609.910000, 52.189210
2610.710000, 52.095640
2611.520000, 52.027860
2612.320000, 51.965780
2613.120000, 51.881500
2613.930000, 51.802520
2614.730000, 51.756140
2615.530000, 51.730560
2616.340000, 51.707980
2617.140000, 51.632700
2617.940000, 51.520920
2618.750000, 51.461940
2619.550000, 51.441260
2620.350000, 51.402980
2621.160000, 51.323000
2621.960000, 51.267730
2622.760000, 51.231850
2623.570000, 51.191470
2624.370000, 51.151490
2625.180000, 51.123710
2625.980000, 51.107430
2626.780000, 51.072350
2627.590000, 51.020870
2628.390000, 51.003390
2629.190000, 51.003910
2630.000000, 50.992930
2630.800000, 50.929750
2631.600000, 50.869670
2632.410000, 50.855590
2633.210000, 50.848020
2634.010000, 50.821940
2634.820000, 50.782460
2635.620000, 50.760080
2636.420000, 50.754100
2637.230000, 50.749920
2638.030000, 50.739240
2638.840000, 50.721660
2639.640000, 50.703080
2640.440000, 50.688500
2641.250000, 50.676520
2642.050000, 50.660640
2642.850000, 50.642660
2643.660000, 50.635090
2644.460000, 50.641910
2645.260000, 50.651730
2646.070000, 50.640650
2646.870000, 50.607170
2647.670000, 50.579590
2648.480000, 50.563410
2649.280000, 50.549730
2650.090000, 50.539250
2650.890000, 50.537570
2651.690000, 50.541390
2652.500000, 50.523510
2653.300000, 50.484030
2654.100000, 50.465350
2654.910000, 50.457780
2655.710000, 50.429900
2656.510000, 50.392120
2657.320000, 50.370940
2658.120000, 50.354360
2658.920000, 50.337280
2659.730000, 50.311400
2660.530000, 50.278120
2661.330000, 50.254240
2662.140000, 50.221560
2662.940000, 50.189780
2663.750000, 50.180300
2664.550000, 50.175220
2665.350000, 50.132340
2666.160000, 50.059570
2666.960000, 49.987990
2667.760000, 49.921310
2668.570000, 49.884630
2669.370000, 49.864850
2670.170000, 49.823670
2670.980000, 49.719290
2671.780000, 49.655510
2672.580000, 49.615630
2673.390000, 49.565950
2674.190000, 49.520670
2674.990000, 49.479190
2675.800000, 49.432410
2676.600000, 49.365540
2677.410000, 49.226160
2678.210000, 49.077280
2679.010000, 48.959300
2679.820000, 48.804420
2680.620000, 48.653540
2681.420000, 48.534760
2682.230000, 48.414680
2683.030000, 48.253300
2683.830000, 48.012520
2684.640000, 47.737840
2685.440000, 47.499760
2686.240000, 47.225980
2687.050000, 46.875300
2687.850000, 46.550030
2688.660000, 46.223950
2689.460000, 45.836070
2690.260000, 45.468190
2691.070000, 45.142610
2691.870000, 44.821830
2692.670000, 44.533950
2693.480000, 44.226170
2694.280000, 43.793490
2695.080000, 43.377510
2695.890000, 43.002530
2696.690000, 42.613650
2697.490000, 42.288470
2698.300000, 41.981190
2699.100000, 41.660620
2699.900000, 41.358640
2700.710000, 41.043860
2701.510000, 40.618080
2702.320000, 40.213600
2703.120000, 39.928920
2703.920000, 39.665940
2704.730000, 39.383660
2705.530000, 39.089080
2706.330000, 38.800600
2707.140000, 38.544820
2707.940000, 38.337540
2708.740000, 38.129360
2709.550000, 37.859880
2710.350000, 37.578610
2711.150000, 37.297230
2711.960000, 37.027750
2712.760000, 36.840470
2713.570000, 36.676990
2714.370000, 36.493410
2715.170000, 36.314930
2715.980000, 36.158850
2716.780000, 36.011370
2717.580000, 35.849090
2718.390000, 35.691210
2719.190000, 35.588030
2719.990000, 35.508050
2720.800000, 35.316680
2721.600000, 35.074000
2722.400000, 34.969120
2723.210000, 34.919640
2724.010000, 34.850960
2724.810000, 34.730180
2725.620000, 34.594600
2726.420000, 34.491620
2727.230000, 34.408940
2728.030000, 34.330060
2728.830000, 34.250480
2729.640000, 34.175300
2730.440000, 34.106720
2731.240000, 34.043740
2732.050000, 33.984870
2732.850000, 33.931090
2733.650000, 33.883810
2734.460000, 33.830930
2735.260000, 33.760650
2736.060000, 33.696870
2736.870000, 33.656890
2737.670000, 33.630810
2738.470000, 33.611830
2739.280000, 33.587950
2740.080000, 33.548470
2740.890000, 33.515190
2741.690000, 33.477010
2742.490000, 33.435230
2743.300000, 33.414760
2744.100000, 33.409680
2744.900000, 33.403800
2745.710000, 33.392720
2746.510000, 33.382440
2747.310000, 33.377160
2748.120000, 33.374580
2748.920000, 33.375000
2749.720000, 33.381020
2750.530000, 33.393440
2751.330000, 33.409660
2752.140000, 33.421780
2752.940000, 33.428700
2753.740000, 33.439720
2754.550000, 33.456350
2755.350000, 33.464270
2756.150000, 33.460490
2756.960000, 33.469810
2757.760000, 33.486130
2758.560000, 33.500850
2759.370000, 33.513270
2760.170000, 33.521890
2760.970000, 33.524510
2761.780000, 33.519830
2762.580000, 33.511750
2763.380000, 33.520570
2764.190000, 33.551690
2764.990000, 33.577320
2765.800000, 33.590140
2766.600000, 33.595960
2767.400000, 33.601780
2768.210000, 33.620900
2769.010000, 33.658220
2769.810000, 33.704140
2770.620000, 33.756260
2771.420000, 33.817080
2772.220000, 33.882300
2773.030000, 33.938020
2773.830000, 33.978140
2774.630000, 34.012560
2775.440000, 34.050980
2776.240000, 34.100110
2777.040000, 34.158630
2777.850000, 34.214550
2778.650000, 34.258970
2779.460000, 34.294390
2780.260000, 34.333210
2781.060000, 34.390330
2781.870000, 34.460450
2782.670000, 34.521470
2783.470000, 34.572390
2784.280000, 34.619010
2785.080000, 34.660830
2785.880000, 34.702650
2786.690000, 34.758470
2787.490000, 34.838300
2788.290000, 34.919920
2789.100000, 34.976640
2789.900000, 35.020260
2790.710000, 35.071080
2791.510000, 35.130100
2792.310000, 35.190320
2793.120000, 35.252540
2793.920000, 35.317460
2794.720000, 35.383180
2795.530000, 35.452400
2796.330000, 35.523620
2797.130000, 35.591440
2797.940000, 35.657870
2798.740000, 35.727890
2799.540000, 35.802910
2800.350000, 35.878930
2801.150000, 35.950150
2801.950000, 36.019070
2802.760000, 36.098290
2803.560000, 36.188310
2804.370000, 36.269930
2805.170000, 36.335850
2805.970000, 36.397370
2806.780000, 36.463090
2807.580000, 36.532110
2808.380000, 36.604630
2809.190000, 36.679560
2809.990000, 36.750080
2810.790000, 36.815900
2811.600000, 36.881320
2812.400000, 36.944640
2813.200000, 37.005360
2814.010000, 37.069780
2814.810000, 37.143800
2815.610000, 37.222920
2816.420000, 37.293940
2817.220000, 37.353560
2818.030000, 37.409880
2818.830000, 37.470100
2819.630000, 37.535420
2820.440000, 37.603050
2821.240000, 37.667370
2822.040000, 37.721390
2822.850000, 37.766410
2823.650000, 37.810130
2824.450000, 37.857350
2825.260000, 37.907670
2826.060000, 37.957590
2826.860000, 38.008010
2827.670000, 38.060430
2828.470000, 38.108350
2829.280000, 38.147470
2830.080000, 38.182490
2830.880000, 38.217310
2831.690000, 38.252340
2832.490000, 38.286760
2833.290000, 38.319080
2834.100000, 38.349300
2834.900000, 38.379320
2835.700000, 38.409940
2836.510000, 38.440260
2837.310000, 38.469680
2838.110000, 38.496200
2838.920000, 38.514520
2839.720000, 38.525040
2840.520000, 38.533860
2841.330000, 38.543480
2842.130000, 38.553010
2842.940000, 38.561830
2843.740000, 38.569750
2844.540000, 38.575870
2845.350000, 38.579390
2846.150000, 38.579110
2846.950000, 38.575530
2847.760000, 38.570250
2848.560000, 38.563170
2849.360000, 38.550890
2850.170000, 38.533010
2850.970000, 38.514930
2851.770000, 38.500050
2852.580000, 38.487470
2853.380000, 38.475500
2854.190000, 38.460620
2854.990000, 38.437440
2855.790000, 38.404960
2856.600000, 38.367880
2857.400000, 38.332900
2858.200000, 38.303520
2859.010000, 38.277140
2859.810000, 38.247560
2860.610000, 38.211980
2861.420000, 38.172300
2862.220000, 38.131420
2863.020000, 38.090540
2863.830000, 38.048360
2864.630000, 38.003590
2865.430000, 37.957810
2866.240000, 37.911830
2867.040000, 37.863550
2867.850000, 37.813070
2868.650000, 37.760890
2869.450000, 37.706310
2870.260000, 37.652230
2871.060000, 37.599950
2871.860000, 37.546370
2872.670000, 37.490990
2873.470000, 37.434910
2874.270000, 37.376330
2875.080000, 37.315750
2875.880000, 37.256380
2876.680000, 37.198200
2877.490000, 37.138120
2878.290000, 37.074540
2879.090000, 37.009160
2879.900000, 36.943580
2880.700000, 36.878500
2881.510000, 36.815220
2882.310000, 36.754340
2883.110000, 36.693860
2883.920000, 36.629880
2884.720000, 36.561100
2885.520000, 36.492520
2886.330000, 36.427850
2887.130000, 36.364470
2887.930000, 36.298390
2888.740000, 36.230610
2889.540000, 36.163530
2890.340000, 36.096650
2891.150000, 36.030070
2891.950000, 35.966990
2892.760000, 35.906710
2893.560000, 35.845130
2894.360000, 35.780950
2895.170000, 35.714670
2895.970000, 35.648290
2896.770000, 35.585310
2897.580000, 35.526640
2898.380000, 35.469260
2899.180000, 35.412380
2899.990000, 35.355500
2900.790000, 35.294420
2901.590000, 35.229140
2902.400000, 35.167560
2903.200000, 35.112680
2904.000000, 35.060300
2904.810000, 35.006220
2905.610000, 34.951540
2906.420000, 34.898460
2907.220000, 34.846780
2908.020000, 34.797000
2908.830000, 34.749930
2909.630000, 34.704350
2910.430000, 34.659370
2911.240000, 34.614790
2912.040000, 34.569710
2912.840000, 34.522730
2913.650000, 34.474950
2914.450000, 34.428770
2915.250000, 34.385890
2916.060000, 34.346410
2916.860000, 34.308530
2917.660000, 34.270750
2918.470000, 34.233970
2919.270000, 34.199600
2920.080000, 34.166620
2920.880000, 34.134540
2921.680000, 34.105060
2922.490000, 34.079380
2923.290000, 34.055700
2924.090000, 34.031920
2924.900000, 34.007440
2925.700000, 33.982660
2926.500000, 33.958280
2927.310000, 33.936600
2928.110000, 33.920220
2928.910000, 33.909440
2929.720000, 33.901960
2930.520000, 33.893390
2931.330000, 33.881010
2932.130000, 33.866630
2932.930000, 33.852350
2933.740000, 33.839170
2934.540000, 33.829890
2935.340000, 33.826810
2936.150000, 33.827830
2936.950000, 33.829450
2937.750000, 33.831370
2938.560000, 33.834990
2939.360000, 33.840010
2940.160000, 33.844530
2940.970000, 33.848050
2941.770000, 33.851880
2942.570000, 33.858100
2943.380000, 33.868020
2944.180000, 33.880240
2944.990000, 33.892260
2945.790000, 33.904280
2946.590000, 33.920100
2947.400000, 33.941720
2948.200000, 33.965740
2949.000000, 33.987560
2949.810000, 34.006780
2950.610000, 34.026000
2951.410000, 34.046420
2952.220000, 34.067840
2953.020000, 34.091770
2953.820000, 34.120990
2954.630000, 34.155010
2955.430000, 34.189830
2956.240000, 34.222250
2957.040000, 34.253670
2957.840000, 34.287690
2958.650000, 34.324810
2959.450000, 34.363930
2960.250000, 34.405350
2961.060000, 34.448670
2961.860000, 34.491690
2962.660000, 34.533110
2963.470000, 34.574540
2964.270000, 34.617760
2965.070000, 34.662080
2965.880000, 34.707000
2966.680000, 34.753320
2967.480000, 34.801840
2968.290000, 34.851460
2969.090000, 34.900880
2969.900000, 34.949500
2970.700000, 34.997620
2971.500000, 35.047540
2972.310000, 35.101360
2973.110000, 35.157980
2973.910000, 35.214400
2974.720000, 35.267730
2975.520000, 35.318250
2976.320000, 35.368370
2977.130000, 35.420790
2977.930000, 35.476010
2978.730000, 35.532530
2979.540000, 35.588050
2980.340000, 35.642170
2981.140000, 35.697690
2981.950000, 35.757410
2982.750000, 35.821230
2983.560000, 35.886150
2984.360000, 35.948770
2985.160000, 36.007990
2985.970000, 36.065420
2986.770000, 36.122740
2987.570000, 36.181560
2988.380000, 36.242580
2989.180000, 36.305800
2989.980000, 36.369620
2990.790000, 36.431740
2991.590000, 36.490160
2992.390000, 36.545180
2993.200000, 36.599700
2994.000000, 36.656720
2994.810000, 36.717340
2995.610000, 36.778960
2996.410000, 36.835780
2997.220000, 36.886110
2998.020000, 36.934330
2998.820000, 36.984950
2999.630000, 37.038670
3000.430000, 37.093490
3001.230000, 37.147810
3002.040000, 37.201030
3002.840000, 37.252950
3003.640000, 37.303370
3004.450000, 37.353290
3005.250000, 37.403710
3006.050000, 37.453130
3006.860000, 37.498850
3007.660000, 37.541880
3008.470000, 37.584300
3009.270000, 37.626120
3010.070000, 37.666440
3010.880000, 37.705860
3011.680000, 37.744980
3012.480000, 37.782600
3013.290000, 37.818020
3014.090000, 37.852640
3014.890000, 37.888660
3015.700000, 37.924980
3016.500000, 37.958300
3017.300000, 37.989120
3018.110000, 38.020240
3018.910000, 38.052370
3019.710000, 38.083090
3020.520000, 38.111010
3021.320000, 38.136630
3022.130000, 38.160650
3022.930000, 38.182070
3023.730000, 38.200690
3024.540000, 38.218210
3025.340000, 38.234530
3026.140000, 38.246150
3026.950000, 38.252970
3027.750000, 38.257990
3028.550000, 38.264010
3029.360000, 38.270930
3030.160000, 38.277560
3030.960000, 38.282080
3031.770000, 38.283800
3032.570000, 38.282820
3033.380000, 38.281240
3034.180000, 38.281360
3034.980000, 38.281180
3035.790000, 38.278600
3036.590000, 38.274320
3037.390000, 38.268240
3038.200000, 38.258360
3039.000000, 38.243780
3039.800000, 38.225900
3040.610000, 38.207730
3041.410000, 38.190450
3042.210000, 38.174570
3043.020000, 38.160390
3043.820000, 38.146110
3044.620000, 38.128430
3045.430000, 38.105550
3046.230000, 38.079370
3047.040000, 38.053190
3047.840000, 38.028710
3048.640000, 38.003530
3049.450000, 37.975150
3050.250000, 37.945570
3051.050000, 37.918190
3051.860000, 37.890820
3052.660000, 37.860740
3053.460000, 37.827560
3054.270000, 37.791480
3055.070000, 37.753400
3055.870000, 37.714420
3056.680000, 37.675640
3057.480000, 37.636960
3058.280000, 37.598180
3059.090000, 37.560200
3059.890000, 37.522120
3060.700000, 37.481640
3061.500000, 37.437760
3062.300000, 37.391380
3063.110000, 37.344710
3063.910000, 37.299430
3064.710000, 37.256150
3065.520000, 37.214670
3066.320000, 37.174290
3067.120000, 37.132910
3067.930000, 37.088530
3068.730000, 37.041150
3069.530000, 36.993470
3070.340000, 36.948990
3071.140000, 36.908210
3071.950000, 36.867030
3072.750000, 36.820950
3073.550000, 36.771770
3074.360000, 36.723000
3075.160000, 36.677320
3075.960000, 36.635940
3076.770000, 36.597360
3077.570000, 36.558480
3078.370000, 36.516900
3079.180000, 36.472720
3079.980000, 36.427140
3080.780000, 36.380360
3081.590000, 36.332380
3082.390000, 36.284700
3083.190000, 36.239320
3084.000000, 36.197540
3084.800000, 36.157770
3085.610000, 36.116790
3086.410000, 36.074410
3087.210000, 36.032430
3088.020000, 35.992450
3088.820000, 35.955870
3089.620000, 35.922590
3090.430000, 35.890110
3091.230000, 35.855030
3092.030000, 35.816350
3092.840000, 35.777970
3093.640000, 35.742390
3094.440000, 35.709410
3095.250000, 35.677930
3096.050000, 35.647360
3096.860000, 35.617680
3097.660000, 35.589500
3098.460000, 35.561320
3099.270000, 35.532940
3100.070000, 35.505760
3100.870000, 35.479780
3101.680000, 35.454700
3102.480000, 35.430720
3103.280000, 35.408940
3104.090000, 35.389460
3104.890000, 35.369680
3105.690000, 35.349100
3106.500000, 35.328620
3107.300000, 35.309250
3108.100000, 35.291570
3108.910000, 35.275690
3109.710000, 35.261710
3110.520000, 35.249230
3111.320000, 35.236950
3112.120000, 35.225070
3112.930000, 35.215190
3113.730000, 35.209010
3114.530000, 35.207030
3115.340000, 35.207950
3116.140000, 35.208370
3116.940000, 35.207990
3117.750000, 35.208610
3118.550000, 35.210940
3119.350000, 35.214060
3120.160000, 35.217080
3120.960000, 35.220100
3121.760000, 35.224820
3122.570000, 35.230540
3123.370000, 35.237160
3124.180000, 35.245780
3124.980000, 35.257600
3125.780000, 35.272220
3126.590000, 35.287840
3127.390000, 35.303560
3128.190000, 35.321080
3129.000000, 35.340010
3129.800000, 35.358930
3130.600000, 35.377050
3131.410000, 35.395170
3132.210000, 35.416490
3133.010000, 35.443210
3133.820000, 35.473630
3134.620000, 35.506150
3135.430000, 35.539270
3136.230000, 35.571690
3137.030000, 35.602510
3137.840000, 35.632830
3138.640000, 35.666250
3139.440000, 35.703370
3140.250000, 35.742700
3141.050000, 35.783220
3141.850000, 35.824640
3142.660000, 35.867660
3143.460000, 35.911580
3144.260000, 35.955200
3145.070000, 35.999720
3145.870000, 36.046040
3146.670000, 36.095060
3147.480000, 36.146780
3148.280000, 36.200100
3149.090000, 36.252520
3149.890000, 36.303140
3150.690000, 36.353560
3151.500000, 36.406290
3152.300000, 36.463310
3153.100000, 36.522130
3153.910000, 36.579150
3154.710000, 36.636370
3155.510000, 36.695690
3156.320000, 36.757710
3157.120000, 36.821630
3157.920000, 36.886050
3158.730000, 36.950770
3159.530000, 37.015990
3160.330000, 37.082410
3161.140000, 37.150130
3161.940000, 37.219060
3162.750000, 37.287880
3163.550000, 37.356000
3164.350000, 37.425220
3165.160000, 37.496440
3165.960000, 37.569860
3166.760000, 37.644380
3167.570000, 37.718400
3168.370000, 37.793020
3169.170000, 37.869840
3169.980000, 37.948960
3170.780000, 38.029680
3171.580000, 38.110600
3172.390000, 38.189920
3173.190000, 38.267650
3174.000000, 38.343570
3174.800000, 38.417490
3175.600000, 38.490210
3176.410000, 38.562930
3177.210000, 38.639250
3178.010000, 38.720170
3178.820000, 38.804490
3179.620000, 38.889910
3180.420000, 38.974430
3181.230000, 39.056450
3182.030000, 39.136670
3182.830000, 39.216490
3183.640000, 39.296510
3184.440000, 39.377040
3185.240000, 39.458560
3186.050000, 39.541180
3186.850000, 39.624800
3187.660000, 39.708420
3188.460000, 39.791340
3189.260000, 39.872660
3190.070000, 39.951880
3190.870000, 40.029900
3191.670000, 40.108520
3192.480000, 40.187540
3193.280000, 40.266160
3194.080000, 40.343380
3194.890000, 40.418900
3195.690000, 40.493530
3196.490000, 40.568050
3197.300000, 40.643570
3198.100000, 40.720690
3198.910000, 40.798910
3199.710000, 40.876230
3200.510000, 40.952750
3201.320000, 41.028970
3202.120000, 41.104390
3202.920000, 41.178210
3203.730000, 41.248630
3204.530000, 41.316750
3205.330000, 41.384170
3206.140000, 41.451200
3206.940000, 41.517620
3207.740000, 41.581840
3208.550000, 41.643960
3209.350000, 41.706080
3210.150000, 41.768600
3210.960000, 41.831020
3211.760000, 41.891140
3212.570000, 41.946760
3213.370000, 42.000180
3214.170000, 42.053000
3214.980000, 42.106620
3215.780000, 42.161740
3216.580000, 42.216360
3217.390000, 42.267990
3218.190000, 42.316110
3218.990000, 42.360730
3219.800000, 42.402750
3220.600000, 42.443170
3221.400000, 42.483690
3222.210000, 42.524610
3223.010000, 42.565630
3223.810000, 42.606350
3224.620000, 42.645670
3225.420000, 42.682690
3226.230000, 42.716310
3227.030000, 42.745830
3227.830000, 42.771550
3228.640000, 42.795880
3229.440000, 42.821400
3230.240000, 42.847220
3231.050000, 42.872340
3231.850000, 42.895260
3232.650000, 42.914580
3233.460000, 42.933100
3234.260000, 42.952220
3235.060000, 42.972440
3235.870000, 42.993060
3236.670000, 43.010880
3237.480000, 43.026100
3238.280000, 43.038720
3239.080000, 43.048440
3239.890000, 43.054670
3240.690000, 43.057190
3241.490000, 43.059910
3242.300000, 43.063530
3243.100000, 43.067650
3243.900000, 43.070370
3244.710000, 43.068890
3245.510000, 43.064610
3246.310000, 43.058930
3247.120000, 43.053050
3247.920000, 43.047670
3248.720000, 43.039990
3249.530000, 43.028310
3250.330000, 43.012540
3251.140000, 42.993660
3251.940000, 42.974980
3252.740000, 42.959200
3253.550000, 42.945220
3254.350000, 42.931540
3255.150000, 42.916360
3255.960000, 42.898980
3256.760000, 42.880700
3257.560000, 42.861320
3258.370000, 42.840940
3259.170000, 42.819660
3259.970000, 42.798880
3260.780000, 42.777700
3261.580000, 42.754430
3262.380000, 42.727850
3263.190000, 42.697670
3263.990000, 42.666290
3264.800000, 42.633710
3265.600000, 42.600230
3266.400000, 42.566150
3267.210000, 42.534370
3268.010000, 42.505190
3268.810000, 42.478110
3269.620000, 42.452030
3270.420000, 42.425050
3271.220000, 42.394470
3272.030000, 42.361490
3272.830000, 42.326720
3273.630000, 42.291440
3274.440000, 42.256060
3275.240000, 42.220380
3276.050000, 42.184800
3276.850000, 42.149520
3277.650000, 42.115240
3278.460000, 42.081460
3279.260000, 42.047180
3280.060000, 42.012500
3280.870000, 41.978120
3281.670000, 41.946640
3282.470000, 41.915960
3283.280000, 41.884390
3284.080000, 41.850310
3284.880000, 41.813030
3285.690000, 41.775950
3286.490000, 41.739770
3287.290000, 41.704690
3288.100000, 41.670110
3288.900000, 41.635630
3289.710000, 41.602050
3290.510000, 41.569570
3291.310000, 41.538790
3292.120000, 41.509910
3292.920000, 41.481530
3293.720000, 41.452850
3294.530000, 41.423480
3295.330000, 41.393200
3296.130000, 41.362820
3296.940000, 41.332440
3297.740000, 41.301860
3298.540000, 41.271480
3299.350000, 41.244500
3300.150000, 41.220520
3300.960000, 41.198440
3301.760000, 41.176360
3302.560000, 41.152580
3303.370000, 41.128800
3304.170000, 41.105620
3304.970000, 41.083040
3305.780000, 41.060370
3306.580000, 41.037690
3307.380000, 41.015810
3308.190000, 40.995430
3308.990000, 40.978750
3309.790000, 40.964770
3310.600000, 40.952590
3311.400000, 40.942010
3312.200000, 40.933430
3313.010000, 40.926350
3313.810000, 40.919470
3314.620000, 40.912390
3315.420000, 40.904710
3316.220000, 40.897430
3317.030000, 40.891260
3317.830000, 40.886580
3318.630000, 40.884200
3319.440000, 40.883920
3320.240000, 40.883440
3321.040000, 40.882360
3321.850000, 40.879880
3322.650000, 40.877800
3323.450000, 40.877620
3324.260000, 40.880040
3325.060000, 40.885860
3325.860000, 40.895780
3326.670000, 40.907200
3327.470000, 40.919230
3328.280000, 40.931250
3329.080000, 40.942070
3329.880000, 40.951890
3330.690000, 40.961210
3331.490000, 40.970730
3332.290000, 40.983950
3333.100000, 41.001070
3333.900000, 41.021390
3334.700000, 41.044310
3335.510000, 41.067230
3336.310000, 41.089550
3337.110000, 41.112170
3337.920000, 41.135590
3338.720000, 41.162420
3339.530000, 41.191240
3340.330000, 41.221660
3341.130000, 41.253380
3341.940000, 41.287300
3342.740000, 41.322220
3343.540000, 41.357240
3344.350000, 41.391460
3345.150000, 41.424380
3345.950000, 41.458800
3346.760000, 41.495620
3347.560000, 41.536240
3348.360000, 41.580760
3349.170000, 41.627080
3349.970000, 41.674910
3350.770000, 41.724230
3351.580000, 41.775050
3352.380000, 41.826370
3353.190000, 41.877890
3353.990000, 41.928810
3354.790000, 41.980230
3355.600000, 42.033350
3356.400000, 42.088370
3357.200000, 42.145690
3358.010000, 42.203310
3358.810000, 42.261430
3359.610000, 42.320250
3360.420000, 42.381170
3361.220000, 42.443700
3362.020000, 42.507120
3362.830000, 42.571340
3363.630000, 42.636560
3364.430000, 42.702780
3365.240000, 42.770500
3366.040000, 42.840520
3366.850000, 42.914240
3367.650000, 42.988560
3368.450000, 43.062680
3369.260000, 43.135300
3370.060000, 43.208120
3370.860000, 43.282440
3371.670000, 43.358770
3372.470000, 43.438290
3373.270000, 43.519810
3374.080000, 43.602430
3374.880000, 43.685950
3375.680000, 43.769670
3376.490000, 43.853790
3377.290000, 43.938410
3378.100000, 44.024030
3378.900000, 44.110550
3379.700000, 44.197670
3380.510000, 44.285290
3381.310000, 44.374210
3382.110000, 44.465630
3382.920000, 44.558960
3383.720000, 44.654380
3384.520000, 44.751200
3385.330000, 44.847120
3386.130000, 44.941740
3386.930000, 45.034460
3387.740000, 45.126780
3388.540000, 45.221000
3389.340000, 45.317320
3390.150000, 45.416840
3390.950000, 45.518260
3391.760000, 45.620780
3392.560000, 45.724100
3393.360000, 45.827420
3394.170000, 45.928650
3394.970000, 46.028470
3395.770000, 46.126990
3396.580000, 46.227610
3397.380000, 46.329730
3398.180000, 46.433050
3398.990000, 46.536770
3399.790000, 46.640690
3400.590000, 46.744610
3401.400000, 46.848330
3402.200000, 46.950550
3403.000000, 47.051770
3403.810000, 47.152290
3404.610000, 47.252720
3405.420000, 47.354040
3406.220000, 47.456360
3407.020000, 47.559480
3407.830000, 47.663500
3408.630000, 47.767820
3409.430000, 47.872140
3410.240000, 47.976260
3411.040000, 48.079380
3411.840000, 48.182300
3412.650000, 48.285520
3413.450000, 48.389640
3414.250000, 48.492460
3415.060000, 48.594280
3415.860000, 48.694710
3416.670000, 48.795530
3417.470000, 48.896450
3418.270000, 48.997370
3419.080000, 49.095890
3419.880000, 49.192910
3420.680000, 49.289030
3421.490000, 49.385350
3422.290000, 49.482670
3423.090000, 49.580090
3423.900000, 49.677510
3424.700000, 49.774130
3425.500000, 49.869450
3426.310000, 49.963370
3427.110000, 50.053900
3427.910000, 50.141020
3428.720000, 50.226440
3429.520000, 50.310660
3430.330000, 50.393880
3431.130000, 50.476200
3431.930000, 50.557720
3432.740000, 50.638940
3433.540000, 50.720360
3434.340000, 50.801080
3435.150000, 50.880400
3435.950000, 50.955920
3436.750000, 51.028940
3437.560000, 51.099460
3438.360000, 51.166090
3439.160000, 51.231210
3439.970000, 51.295430
3440.770000, 51.359750
3441.580000, 51.423270
3442.380000, 51.485190
3443.180000, 51.545110
3443.990000, 51.601430
3444.790000, 51.655750
3445.590000, 51.707970
3446.400000, 51.756590
3447.200000, 51.803010
3448.000000, 51.848430
3448.810000, 51.893260
3449.610000, 51.938380
3450.410000, 51.983500
3451.220000, 52.028320
3452.020000, 52.070240
3452.820000, 52.108760
3453.630000, 52.143480
3454.430000, 52.171600
3455.240000, 52.196720
3456.040000, 52.220740
3456.840000, 52.245060
3457.650000, 52.269880
3458.450000, 52.293500
3459.250000, 52.314920
3460.060000, 52.330750
3460.860000, 52.344470
3461.660000, 52.356290
3462.470000, 52.366910
3463.270000, 52.375930
3464.070000, 52.382950
3464.880000, 52.385470
3465.680000, 52.383890
3466.480000, 52.380810
3467.290000, 52.377030
3468.090000, 52.373650
3468.900000, 52.368570
3469.700000, 52.361590
3470.500000, 52.349310
3471.310000, 52.335440
3472.110000, 52.320160
3472.910000, 52.303480
3473.720000, 52.285800
3474.520000, 52.266920
3475.320000, 52.245740
3476.130000, 52.221860
3476.930000, 52.196280
3477.730000, 52.169100
3478.540000, 52.141020
3479.340000, 52.111340
3480.150000, 52.079660
3480.950000, 52.041980
3481.750000, 52.001500
3482.560000, 51.958430
3483.360000, 51.914150
3484.160000, 51.869870
3484.970000, 51.825290
3485.770000, 51.778810
3486.570000, 51.730230
3487.380000, 51.680050
3488.180000, 51.628170
3488.980000, 51.575190
3489.790000, 51.521410
3490.590000, 51.466430
3491.390000, 51.410450
3492.200000, 51.353670
3493.000000, 51.295700
3493.810000, 51.235820
3494.610000, 51.175440
3495.410000, 51.114660
3496.220000, 51.054280
3497.020000, 50.992900
3497.820000, 50.930420
3498.630000, 50.863740
3499.430000, 50.794660
3500.230000, 50.723780
3501.040000, 50.651300
3501.840000, 50.579620
3502.640000, 50.508540
3503.450000, 50.438860
3504.250000, 50.369290
3505.050000, 50.299510
3505.860000, 50.228930
3506.660000, 50.157150
3507.470000, 50.084570
3508.270000, 50.010490
3509.070000, 49.935910
3509.880000, 49.861430
3510.680000, 49.787450
3511.480000, 49.712670
3512.290000, 49.636690
3513.090000, 49.558710
3513.890000, 49.479230
3514.700000, 49.399950
3515.500000, 49.320980
3516.300000, 49.243800
3517.110000, 49.167520
3517.910000, 49.092240
3518.720000, 49.017760
3519.520000, 48.943180
3520.320000, 48.868100
3521.130000, 48.791120
3521.930000, 48.713240
3522.730000, 48.634460
3523.540000, 48.555880
3524.340000, 48.478200
3525.140000, 48.401520
3525.950000, 48.325750
3526.750000, 48.249870
3527.550000, 48.173990
3528.360000, 48.099010
3529.160000, 48.025530
3529.960000, 47.953250
3530.770000, 47.882670
3531.570000, 47.812590
3532.380000, 47.743010
3533.180000, 47.675230
3533.980000, 47.608950
3534.790000, 47.543770
3535.590000, 47.479490
3536.390000, 47.414710
3537.200000, 47.349440
3538.000000, 47.283360
3538.800000, 47.217380
3539.610000, 47.151800
3540.410000, 47.088020
3541.210000, 47.025940
3542.020000, 46.965360
3542.820000, 46.906980
3543.630000, 46.849600
3544.430000, 46.793220
3545.230000, 46.738540
3546.040000, 46.684460
3546.840000, 46.631080
3547.640000, 46.578800
3548.450000, 46.527530
3549.250000, 46.477350
3550.050000, 46.430370
3550.860000, 46.384990
3551.660000, 46.341210
3552.460000, 46.299430
3553.270000, 46.257950
3554.070000, 46.217070
3554.870000, 46.177190
3555.680000, 46.138210
3556.480000, 46.100130
3557.290000, 46.063650
3558.090000, 46.028070
3558.890000, 45.993690
3559.700000, 45.961320
3560.500000, 45.930040
3561.300000, 45.900460
3562.110000, 45.873680
3562.910000, 45.848600
3563.710000, 45.825920
3564.520000, 45.804240
3565.320000, 45.782660
3566.120000, 45.760580
3566.930000, 45.738300
3567.730000, 45.716720
3568.530000, 45.697840
3569.340000, 45.683560
3570.140000, 45.672490
3570.950000, 45.666710
3571.750000, 45.662230
3572.550000, 45.658450
3573.360000, 45.653370
3574.160000, 45.647490
3574.960000, 45.641210
3575.770000, 45.636530
3576.570000, 45.633250
3577.370000, 45.631370
3578.180000, 45.630690
3578.980000, 45.630610
3579.780000, 45.631530
3580.590000, 45.636750
3581.390000, 45.644780
3582.200000, 45.657200
3583.000000, 45.672020
3583.800000, 45.687340
3584.610000, 45.702460
3585.410000, 45.717780
3586.210000, 45.733800
3587.020000, 45.752420
3587.820000, 45.773540
3588.620000, 45.796360
3589.430000, 45.821980
3590.230000, 45.848500
3591.030000, 45.875920
3591.840000, 45.904840
3592.640000, 45.934570
3593.440000, 45.965490
3594.250000, 45.998310
3595.050000, 46.031730
3595.860000, 46.065950
3596.660000, 46.100970
3597.460000, 46.136890
3598.270000, 46.175010
3599.070000, 46.215830
3599.870000, 46.258350
3600.680000, 46.303070
3601.480000, 46.348090
3602.280000, 46.393410
3603.090000, 46.439730
3603.890000, 46.486860
3604.690000, 46.534880
3605.500000, 46.584400
3606.300000, 46.634320
3607.100000, 46.685140
3607.910000, 46.737460
3608.710000, 46.790880
3609.520000, 46.846400
3610.320000, 46.903020
3611.120000, 46.960240
3611.930000, 47.018460
3612.730000, 47.077380
3613.530000, 47.136900
3614.340000, 47.197430
3615.140000, 47.259050
3615.940000, 47.322270
3616.750000, 47.388790
3617.550000, 47.456510
3618.350000, 47.525730
3619.160000, 47.594450
3619.960000, 47.662970
3620.770000, 47.731490
3621.570000, 47.800710
3622.370000, 47.870530
3623.180000, 47.941850
3623.980000, 48.013870
3624.780000, 48.087190
3625.590000, 48.161620
3626.390000, 48.236340
3627.190000, 48.310760
3628.000000, 48.385280
3628.800000, 48.459900
3629.600000, 48.536820
3630.410000, 48.615040
3631.210000, 48.694660
3632.010000, 48.775080
3632.820000, 48.855200
3633.620000, 48.934920
3634.430000, 49.014540
3635.230000, 49.094160
3636.030000, 49.174380
3636.840000, 49.255110
3637.640000, 49.336230
3638.440000, 49.418250
3639.250000, 49.500370
3640.050000, 49.582290
3640.850000, 49.663110
3641.660000, 49.743630
3642.460000, 49.823550
3643.260000, 49.904670
3644.070000, 49.986390
3644.870000, 50.070110
3645.670000, 50.154030
3646.480000, 50.238250
3647.280000, 50.321580
3648.090000, 50.404600
3648.890000, 50.487320
3649.690000, 50.570740
3650.500000, 50.654460
3651.300000, 50.738680
3652.100000, 50.822600
3652.910000, 50.906120
3653.710000, 50.988640
3654.510000, 51.070460
3655.320000, 51.150680
3656.120000, 51.229300
3656.920000, 51.307120
3657.730000, 51.384340
3658.530000, 51.462570
3659.340000, 51.542190
3660.140000, 51.623610
3660.940000, 51.705430
3661.750000, 51.787050
3662.550000, 51.867170
3663.350000, 51.946290
3664.160000, 52.023210
3664.960000, 52.099830
3665.760000, 52.175950
3666.570000, 52.251570
3667.370000, 52.326690
3668.170000, 52.400510
3668.980000, 52.473130
3669.780000, 52.544860
3670.580000, 52.614280
3671.390000, 52.683000
3672.190000, 52.750620
3673.000000, 52.818240
3673.800000, 52.885960
3674.600000, 52.953980
3675.410000, 53.021700
3676.210000, 53.089120
3677.010000, 53.154940
3677.820000, 53.219860
3678.620000, 53.282880
3679.420000, 53.344800
3680.230000, 53.405920
3681.030000, 53.466150
3681.830000, 53.525970
3682.640000, 53.585290
3683.440000, 53.644210
3684.250000, 53.702830
3685.050000, 53.760950
3685.850000, 53.818570
3686.660000, 53.875490
3687.460000, 53.929910
3688.260000, 53.982930
3689.070000, 54.032850
3689.870000, 54.080870
3690.670000, 54.127690
3691.480000, 54.173820
3692.280000, 54.219840
3693.080000, 54.265560
3693.890000, 54.309880
3694.690000, 54.353300
3695.490000, 54.393020
3696.300000, 54.431440
3697.100000, 54.468060
3697.910000, 54.503580
3698.710000, 54.538500
3699.510000, 54.572120
3700.320000, 54.604640
3701.120000, 54.635860
3701.920000, 54.665780
3702.730000, 54.695310
3703.530000, 54.723930
3704.330000, 54.750950
3705.140000, 54.776570
3705.940000, 54.798290
3706.740000, 54.819010
3707.550000, 54.837730
3708.350000, 54.856250
3709.150000, 54.874570
3709.960000, 54.891890
3710.760000, 54.908410
3711.570000, 54.923130
3712.370000, 54.935550
3713.170000, 54.946770
3713.980000, 54.954600
3714.780000, 54.962020
3715.580000, 54.969040
3716.390000, 54.976760
3717.190000, 54.984780
3717.990000, 54.990800
3718.800000, 54.995020
3719.600000, 54.996040
3720.400000, 54.995360
3721.210000, 54.993880
3722.010000, 54.992700
3722.820000, 54.991020
3723.620000, 54.988540
3724.420000, 54.983860
3725.230000, 54.978090
3726.030000, 54.969810
3726.830000, 54.961130
3727.640000, 54.951750
3728.440000, 54.942170
3729.240000, 54.932290
3730.050000, 54.921010
3730.850000, 54.909030
3731.650000, 54.895850
3732.460000, 54.881470
3733.260000, 54.866490
3734.060000, 54.849710
3734.870000, 54.832230
3735.670000, 54.813660
3736.480000, 54.793680
3737.280000, 54.773200
3738.080000, 54.750420
3738.890000, 54.727140
3739.690000, 54.702760
3740.490000, 54.678280
3741.300000, 54.653700
3742.100000, 54.629720
3742.900000, 54.605340
3743.710000, 54.580160
3744.510000, 54.552980
3745.310000, 54.524500
3746.120000, 54.494420
3746.920000, 54.464550
3747.720000, 54.435470
3748.530000, 54.407090
3749.330000, 54.379210
3750.140000, 54.350630
3750.940000, 54.321350
3751.740000, 54.289670
3752.550000, 54.256190
3753.350000, 54.220910
3754.150000, 54.184130
3754.960000, 54.147150
3755.760000, 54.110970
3756.560000, 54.075590
3757.370000, 54.041410
3758.170000, 54.007540
3758.970000, 53.973660
3759.780000, 53.938580
3760.580000, 53.903300
3761.390000, 53.867520
3762.190000, 53.832540
3762.990000, 53.798260
3763.800000, 53.765380
3764.600000, 53.732200
3765.400000, 53.697720
3766.210000, 53.661240
3767.010000, 53.623160
3767.810000, 53.584080
3768.620000, 53.545210
3769.420000, 53.507430
3770.220000, 53.470350
3771.030000, 53.434070
3771.830000, 53.397890
3772.630000, 53.361710
3773.440000, 53.325330
3774.240000, 53.289150
3775.050000, 53.253370
3775.850000, 53.217990
3776.650000, 53.182910
3777.460000, 53.147530
3778.260000, 53.111950
3779.060000, 53.076170
3779.870000, 53.040800
3780.670000, 53.005820
3781.470000, 52.972040
3782.280000, 52.938660
3783.080000, 52.905380
3783.880000, 52.871700
3784.690000, 52.836920
3785.490000, 52.802340
3786.300000, 52.767860
3787.100000, 52.736080
3787.900000, 52.705200
3788.710000, 52.676320
3789.510000, 52.646940
3790.310000, 52.616960
3791.120000, 52.585790
3791.920000, 52.554010
3792.720000, 52.523430
3793.530000, 52.493550
3794.330000, 52.465970
3795.130000, 52.438890
3795.940000, 52.412310
3796.740000, 52.384930
3797.540000, 52.357450
3798.350000, 52.329370
3799.150000, 52.301790
3799.960000, 52.274910
3800.760000, 52.249730
3801.560000, 52.225650
3802.370000, 52.202780
3803.170000, 52.180000
3803.970000, 52.156720
3804.780000, 52.133240
3805.580000, 52.109560
3806.380000, 52.086580
3807.190000, 52.064000
3807.990000, 52.042800
3808.790000, 52.022300
3809.600000, 52.003500
3810.400000, 51.985200
3811.200000, 51.967500
3812.010000, 51.949300
3812.810000, 51.931000
3813.620000, 51.912300
3814.420000, 51.894000
3815.220000, 51.877200
3816.030000, 51.861600
3816.830000, 51.847300
3817.630000, 51.833500
3818.440000, 51.820000
3819.240000, 51.807300
3820.040000, 51.795100
3820.850000, 51.784500
3821.650000, 51.774500
3822.450000, 51.765100
3823.260000, 51.755900
3824.060000, 51.746800
3824.870000, 51.739700
3825.670000, 51.733500
3826.470000, 51.730000
3827.280000, 51.727400
3828.080000, 51.725900
3828.880000, 51.724500
3829.690000, 51.723200
3830.490000, 51.721100
3831.290000, 51.718800
3832.100000, 51.715600
3832.900000, 51.712900
3833.700000, 51.710700
3834.510000, 51.711300
3835.310000, 51.713400
3836.110000, 51.719400
3836.920000, 51.726300
3837.720000, 51.735300
3838.530000, 51.744700
3839.330000, 51.754600
3840.130000, 51.764200
3840.940000, 51.773600
3841.740000, 51.782600
3842.540000, 51.791600
3843.350000, 51.802400
3844.150000, 51.814200
3844.950000, 51.828700
3845.760000, 51.844600
3846.560000, 51.862000
3847.360000, 51.880000
3848.170000, 51.898200
3848.970000, 51.916100
3849.770000, 51.934100
3850.580000, 51.952600
3851.380000, 51.972200
3852.190000, 51.993700
3852.990000, 52.017700
3853.790000, 52.043400
3854.600000, 52.071300
3855.400000, 52.099600
3856.200000, 52.128300
3857.010000, 52.157100
3857.810000, 52.186000
3858.610000, 52.215700
3859.420000, 52.246200
3860.220000, 52.278400
3861.020000, 52.311300
3861.830000, 52.346900
3862.630000, 52.383100
3863.440000, 52.422100
3864.240000, 52.461500
3865.040000, 52.501800
3865.850000, 52.542100
3866.650000, 52.582400
3867.450000, 52.623300
3868.260000, 52.664400
3869.060000, 52.707400
3869.860000, 52.750900
3870.670000, 52.796800
3871.470000, 52.843800
3872.270000, 52.893000
3873.080000, 52.943600
3873.880000, 52.995400
3874.680000, 53.048300
3875.490000, 53.101600
3876.290000, 53.156000
3877.100000, 53.210700
3877.900000, 53.266000
3878.700000, 53.321400
3879.510000, 53.377000
3880.310000, 53.433300
3881.110000, 53.490000
3881.920000, 53.548600
3882.720000, 53.607800
3883.520000, 53.669700
3884.330000, 53.732100
3885.130000, 53.797200
3885.930000, 53.862900
3886.740000, 53.930200
3887.540000, 53.998200
3888.350000, 54.066800
3889.150000, 54.136700
3889.950000, 54.207100
3890.760000, 54.279700
3891.560000, 54.352800
3892.360000, 54.427700
3893.170000, 54.502700
3893.970000, 54.578100
3894.770000, 54.653500
3895.580000, 54.728900
3896.380000, 54.804900
3897.180000, 54.881400
3897.990000, 54.960000
3898.790000, 55.039300
3899.590000, 55.121600
3900.400000, 55.204300
3901.200000, 55.289100
3902.010000, 55.374300
3902.810000, 55.460500
3903.610000, 55.547100
3904.420000, 55.634100
3905.220000, 55.721400
3906.020000, 55.808700
3906.830000, 55.896400
3907.630000, 55.984000
3908.430000, 56.072800
3909.240000, 56.161700
3910.040000, 56.252300
3910.840000, 56.343200
3911.650000, 56.434700
3912.450000, 56.526300
3913.250000, 56.617800
3914.060000, 56.709800
3914.860000, 56.802200
3915.670000, 56.896400
3916.470000, 56.990900
3917.270000, 57.087000
3918.080000, 57.183100
3918.880000, 57.278800
3919.680000, 57.374400
3920.490000, 57.469400
3921.290000, 57.565000
3922.090000, 57.661100
3922.900000, 57.758500
3923.700000, 57.856900
3924.500000, 57.956300
3925.310000, 58.056100
3926.110000, 58.156300
3926.920000, 58.256400
3927.720000, 58.356400
3928.520000, 58.456300
3929.330000, 58.555600
3930.130000, 58.654700
3930.930000, 58.753100
3931.740000, 58.851200
3932.540000, 58.948900
3933.340000, 59.047000
3934.150000, 59.145400
3934.950000, 59.245000
3935.750000, 59.345000
3936.560000, 59.445100
3937.360000, 59.545100
3938.160000, 59.643300
3938.970000, 59.741300
3939.770000, 59.838000
3940.580000, 59.934700
3941.380000, 60.031400
3942.180000, 60.128600
3942.990000, 60.226400
3943.790000, 60.324400
3944.590000, 60.422500
3945.400000, 60.518900
3946.200000, 60.614700
3947.000000, 60.707300
3947.810000, 60.799300
3948.610000, 60.889000
3949.410000, 60.978500
3950.220000, 61.067200
3951.020000, 61.155800
3951.820000, 61.243700
3952.630000, 61.331300
3953.430000, 61.418400
3954.240000, 61.505300
3955.040000, 61.591900
3955.840000, 61.677600
3956.650000, 61.762900
3957.450000, 61.845500
3958.250000, 61.927300
3959.060000, 62.005200
3959.860000, 62.082400
3960.660000, 62.157200
3961.470000, 62.231900
3962.270000, 62.306500
3963.070000, 62.381000
3963.880000, 62.454900
3964.680000, 62.527700
3965.490000, 62.598200
3966.290000, 62.666800
3967.090000, 62.732800
3967.900000, 62.796900
3968.700000, 62.859300
3969.500000, 62.920200
3970.310000, 62.980200
3971.110000, 63.038600
3971.910000, 63.096500
3972.720000, 63.151900
3973.520000, 63.206800
3974.320000, 63.258000
3975.130000, 63.308600
3975.930000, 63.355500
3976.730000, 63.401700
3977.540000, 63.444900
3978.340000, 63.487300
3979.150000, 63.527900
3979.950000, 63.567400
3980.750000, 63.605200
3981.560000, 63.641200
3982.360000, 63.675100
3983.160000, 63.706100
3983.970000, 63.735100
3984.770000, 63.760700
3985.570000, 63.784700
3986.380000, 63.805600
3987.180000, 63.825600
3987.980000, 63.842100
3988.790000, 63.858100
3989.590000, 63.869500
3990.390000, 63.880400
3991.200000, 63.887100
3992.000000, 63.893400
3992.810000, 63.897000
3993.610000, 63.899700
3994.410000, 63.899400
3995.220000, 63.897600
3996.020000, 63.892200
3996.820000, 63.885300
3997.630000, 63.875800
3998.430000, 63.864600
3999.230000, 63.851500
4000.040000, 63.835700
4000.840000, 63.817800
4001.640000, 63.796700
4002.450000, 63.773800
4003.250000, 63.747800
4004.060000, 63.720500
4004.860000, 63.689700
4005.660000, 63.657800
4006.470000, 63.621500
4007.270000, 63.584600
4008.070000, 63.542900
4008.880000, 63.500900
4009.680000, 63.454400
4010.480000, 63.407700
4011.290000, 63.357500
4012.090000, 63.306800
4012.890000, 63.253400
4013.700000, 63.199100
4014.500000, 63.141900
4015.300000, 63.083100
4016.110000, 63.020700
4016.910000, 62.956200
4017.720000, 62.887800
4018.520000, 62.817300
4019.320000, 62.743700
4020.130000, 62.668400
4020.930000, 62.591100
4021.730000, 62.511700
4022.540000, 62.430600
4023.340000, 62.346800
4024.140000, 62.261100
4024.950000, 62.173000
4025.750000, 62.083700
4026.550000, 61.992300
4027.360000, 61.900200
4028.160000, 61.805400
4028.970000, 61.709800
4029.770000, 61.610600
4030.570000, 61.510600
4031.380000, 61.407300
4032.180000, 61.303600
4032.980000, 61.197500
4033.790000, 61.091400
4034.590000, 60.982700
4035.390000, 60.873900
4036.200000, 60.761600
4037.000000, 60.649100
4037.800000, 60.532900
4038.610000, 60.416400
4039.410000, 60.297100
4040.210000, 60.177400
4041.020000, 60.055500
4041.820000, 59.933200
4042.630000, 59.808900
4043.430000, 59.683900
4044.230000, 59.556600
4045.040000, 59.428100
4045.840000, 59.296600
4046.640000, 59.163900
4047.450000, 59.028600
4048.250000, 58.893100
4049.050000, 58.756900
4049.860000, 58.620800
4050.660000, 58.485100
4051.460000, 58.349100
4052.270000, 58.212500
4053.070000, 58.074600
4053.870000, 57.935100
4054.680000, 57.794000
4055.480000, 57.651100
4056.290000, 57.507500
4057.090000, 57.363100
4057.890000, 57.218900
4058.700000, 57.074700
4059.500000, 56.930000
4060.300000, 56.784900
4061.110000, 56.638600
4061.910000, 56.491300
4062.710000, 56.343200
4063.520000, 56.194700
4064.320000, 56.045900
4065.120000, 55.897000
4065.930000, 55.747500
4066.730000, 55.597700
4067.540000, 55.446800
4068.340000, 55.295400
4069.140000, 55.143200
4069.950000, 54.990800
4070.750000, 54.838800
4071.550000, 54.687000
4072.360000, 54.536300
4073.160000, 54.386000
4073.960000, 54.236400
4074.770000, 54.087100
4075.570000, 53.937700
4076.370000, 53.788200
4077.180000, 53.637500
4077.980000, 53.486500
4078.780000, 53.334200
4079.590000, 53.181400
4080.390000, 53.028200
4081.200000, 52.874900
4082.000000, 52.721900
4082.800000, 52.569100
4083.610000, 52.417000
4084.410000, 52.265200
4085.210000, 52.114500
4086.020000, 51.964300
4086.820000, 51.815100
4087.620000, 51.666400
4088.430000, 51.518700
4089.230000, 51.371400
4090.030000, 51.224900
4090.840000, 51.078900
4091.640000, 50.933600
4092.440000, 50.788800
4093.250000, 50.644300
4094.050000, 50.500100
4094.860000, 50.356300
4095.660000, 50.212600
4096.460000, 50.070000
4097.270000, 49.928000
4098.070000, 49.787600
4098.870000, 49.648100
4099.680000, 49.509600
4100.480000, 49.371800
4101.280000, 49.234500
4102.090000, 49.097500
4102.890000, 48.961100
4103.690000, 48.825100
4104.500000, 48.690100
4105.300000, 48.555800
4106.110000, 48.423000
4106.910000, 48.291600
4107.710000, 48.161700
4108.520000, 48.033300
4109.320000, 47.905800
4110.120000, 47.779400
4110.930000, 47.653700
4111.730000, 47.528900
4112.530000, 47.404500
4113.340000, 47.280900
4114.140000, 47.157800
4114.940000, 47.035400
4115.750000, 46.913500
4116.550000, 46.792300
4117.350000, 46.671800
4118.160000, 46.552400
4118.960000, 46.433900
4119.770000, 46.317400
4120.570000, 46.201700
4121.370000, 46.088000
4122.180000, 45.975000
4122.980000, 45.863700
4123.780000, 45.753200
4124.590000, 45.645100
4125.390000, 45.537500
4126.190000, 45.433100
4127.000000, 45.329000
4127.800000, 45.227200
4128.600000, 45.125500
4129.410000, 45.025100
4130.210000, 44.924700
4131.020000, 44.826000
4131.820000, 44.727300
4132.620000, 44.631500
4133.430000, 44.535700
4134.230000, 44.442400
4135.030000, 44.349400
4135.840000, 44.257400
4136.640000, 44.165500
4137.440000, 44.074900
4138.250000, 43.984600
4139.050000, 43.896500
4139.850000, 43.809200
4140.660000, 43.724300
4141.460000, 43.640500
4142.260000, 43.558200
4143.070000, 43.476800
4143.870000, 43.396800
4144.680000, 43.317700
4145.480000, 43.240500
4146.280000, 43.165000
4147.090000, 43.091400
4147.890000, 43.020000
4148.690000, 42.949400
4149.500000, 42.880000
4150.300000, 42.810800
4151.100000, 42.742000
4151.910000, 42.673700
4152.710000, 42.606900
4153.510000, 42.540700
4154.320000, 42.477100
4155.120000, 42.413800
4155.920000, 42.352800
4156.730000, 42.291900
4157.530000, 42.233200
4158.340000, 42.174500
4159.140000, 42.118600
4159.940000, 42.062800
4160.750000, 42.009100
4161.550000, 41.955700
4162.350000, 41.903600
4163.160000, 41.851700
4163.960000, 41.801300
4164.760000, 41.751400
4165.570000, 41.703600
4166.370000, 41.657000
4167.170000, 41.612700
4167.980000, 41.570100
4168.780000, 41.528600
4169.590000, 41.488200
4170.390000, 41.448100
4171.190000, 41.408300
4172.000000, 41.368800
4172.800000, 41.330000
4173.600000, 41.291800
4174.410000, 41.255000
4175.210000, 41.218400
4176.010000, 41.183000
4176.820000, 41.147700
4177.620000, 41.113600
4178.420000, 41.079500
4179.230000, 41.047500
4180.030000, 41.015700
4180.830000, 40.986700
4181.640000, 40.958200
4182.440000, 40.932800
4183.250000, 40.908400
4184.050000, 40.887200
4184.850000, 40.867500
4185.660000, 40.850400
4186.460000, 40.835500
4187.260000, 40.823100
4188.070000, 40.813700
4188.870000, 40.807300
4189.670000, 40.806200
4190.480000, 40.807800
4191.280000, 40.817700
4192.080000, 40.829200
4192.890000, 40.850700
4193.690000, 40.872600
4194.490000, 40.905500
4195.300000, 40.938400
4196.100000, 40.982000
4196.910000, 41.026400
4197.710000, 41.079900
4198.510000, 41.135500
4199.320000, 41.197000
4200.120000, 41.261100
4200.920000, 41.328000
4201.730000, 41.397000
4202.530000, 41.466800
4203.330000, 41.537800
4204.140000, 41.609400
4204.940000, 41.682400
4205.740000, 41.756700
4206.550000, 41.835700
4207.350000, 41.915500
4208.160000, 42.003800
4208.960000, 42.092100
4209.760000, 42.189600
4210.570000, 42.287300
4211.370000, 42.392400
4212.170000, 42.498800
4212.980000, 42.611600
4213.780000, 42.727000
4214.580000, 42.846700
4215.390000, 42.969500
4216.190000, 43.093500
4216.990000, 43.219000
4217.800000, 43.344200
4218.600000, 43.468900
4219.400000, 43.593100
4220.210000, 43.715300
4221.010000, 43.837200
4221.820000, 43.953300
4222.620000, 44.069500
4223.420000, 44.176000
4224.230000, 44.281500
4225.030000, 44.376400
4225.830000, 44.468100
4226.640000, 44.547800
4227.440000, 44.620200
4228.240000, 44.680100
4229.050000, 44.726400
4229.850000, 44.763900
4230.650000, 44.784000
4231.460000, 44.801000
4232.260000, 44.804400
4233.060000, 44.807600
4233.870000, 44.806200
4234.670000, 44.804700
4235.480000, 44.793200
4236.280000, 44.780500
4237.080000, 44.740200
4237.890000, 44.690100
4238.690000, 44.614000
4239.490000, 44.519300
4240.300000, 44.410200
4241.100000, 44.281800
4241.900000, 44.141800
4242.710000, 43.970300
4243.510000, 43.793100
4244.310000, 43.568500
4245.120000, 43.343900
4245.920000, 43.099700
4246.730000, 42.854400
4247.530000, 42.619600
4248.330000, 42.387800
4249.140000, 42.154900
4249.940000, 41.921400
4250.740000, 41.677300
4251.550000, 41.420300
4252.350000, 41.159300
4253.150000, 40.887600
4253.960000, 40.618800
4254.760000, 40.372000
4255.560000, 40.125400
4256.370000, 39.954500
4257.170000, 39.788600
4257.970000, 39.707500
4258.780000, 39.652600
4259.580000, 39.651500
4260.390000, 39.688000
4261.190000, 39.734600
4261.990000, 39.795600
4262.800000, 39.846600
4263.600000, 39.864100
4264.400000, 39.878600
4265.210000, 39.834500
4266.010000, 39.790500
4266.810000, 39.704600
4267.620000, 39.612400
4268.420000, 39.491900
4269.220000, 39.358300
4270.030000, 39.201500
4270.830000, 39.021200
4271.640000, 38.829900
4272.440000, 38.613400
4273.240000, 38.397500
4274.050000, 38.185200
4274.850000, 37.972900
4275.650000, 37.805800
4276.460000, 37.642300
4277.260000, 37.515500
4278.060000, 37.402100
4278.870000, 37.290400
4279.670000, 37.180100
4280.470000, 37.060300
4281.280000, 36.922000
4282.080000, 36.782300
4282.880000, 36.633900
4283.690000, 36.485600
4284.490000, 36.341800
4285.300000, 36.198400
4286.100000, 36.050600
4286.900000, 35.901200
4287.710000, 35.741800
4288.510000, 35.573400
4289.310000, 35.399300
4290.120000, 35.213100
4290.920000, 35.026000
4291.720000, 34.831700
4292.530000, 34.637400
4293.330000, 34.438800
4294.130000, 34.239800
4294.940000, 34.035000
4295.740000, 33.827600
4296.540000, 33.616900
4297.350000, 33.402500
4298.150000, 33.188700
4298.960000, 32.976000
4299.760000, 32.763600
4300.560000, 32.555900
4301.370000, 32.348200
4302.170000, 32.140300
4302.970000, 31.932400
4303.780000, 31.723400
4304.580000, 31.513800
4305.380000, 31.303800
4306.190000, 31.093100
4306.990000, 30.881300
4307.790000, 30.663000
4308.600000, 30.444800
4309.400000, 30.215800
4310.210000, 29.985900
4311.010000, 29.754400
4311.810000, 29.522200
4312.620000, 29.294200
4313.420000, 29.070900
4314.220000, 28.849900
4315.030000, 28.635900
4315.830000, 28.422000
4316.630000, 28.212700
4317.440000, 28.003400
4318.240000, 27.800000
4319.040000, 27.598500
4319.850000, 27.402900
4320.650000, 27.212500
4321.450000, 27.024000
4322.260000, 26.840200
4323.060000, 26.656500
4323.870000, 26.472900
4324.670000, 26.289400
4325.470000, 26.102700
4326.280000, 25.915300
4327.080000, 25.726400
4327.880000, 25.536200
4328.690000, 25.346300
4329.490000, 25.156900
4330.290000, 24.967600
4331.100000, 24.779700
4331.900000, 24.591800
4332.700000, 24.403800
4333.510000, 24.215900
4334.310000, 24.027700
4335.110000, 23.839200
4335.920000, 23.651300
4336.720000, 23.464800
4337.530000, 23.278700
4338.330000, 23.098700
4339.130000, 22.918800
4339.940000, 22.745700
4340.740000, 22.574400
4341.540000, 22.407200
4342.350000, 22.243600
4343.150000, 22.081600
4343.950000, 21.923800
4344.760000, 21.766000
4345.560000, 21.610500
4346.360000, 21.455100
4347.170000, 21.299600
4347.970000, 21.144000
4348.780000, 20.989400
4349.580000, 20.835800
4350.380000, 20.683000
4351.190000, 20.533600
4351.990000, 20.384300
4352.790000, 20.238300
4353.600000, 20.092600
4354.400000, 19.949100
4355.200000, 19.806600
4356.010000, 19.665800
4356.810000, 19.527400
4357.610000, 19.389500
4358.420000, 19.255100
4359.220000, 19.120700
4360.020000, 18.988000
4360.830000, 18.855800
4361.630000, 18.724500
4362.440000, 18.594100
4363.240000, 18.464500
4364.040000, 18.337000
4364.850000, 18.209500
4365.650000, 18.085600
4366.450000, 17.961800
4367.260000, 17.840700
4368.060000, 17.720900
4368.860000, 17.602600
4369.670000, 17.486300
4370.470000, 17.370400
4371.270000, 17.257000
4372.080000, 17.143600
4372.880000, 17.032000
4373.690000, 16.920800
4374.490000, 16.810900
4375.290000, 16.702200
4376.100000, 16.594500
4376.900000, 16.490500
4377.700000, 16.386500
4378.510000, 16.288800
4379.310000, 16.191800
4380.110000, 16.099000
4380.920000, 16.008900
4381.720000, 15.920400
4382.520000, 15.835200
4383.330000, 15.750000
4384.130000, 15.667600
4384.930000, 15.585200
4385.740000, 15.504200
4386.540000, 15.423700
4387.350000, 15.344100
4388.150000, 15.265600
4388.950000, 15.187300
4389.760000, 15.111000
4390.560000, 15.034800
4391.360000, 14.960100
4392.170000, 14.885900
4392.970000, 14.812700
4393.770000, 14.740600
4394.580000, 14.669000
4395.380000, 14.600000
4396.180000, 14.530900
4396.990000, 14.464500
4397.790000, 14.398600
4398.590000, 14.334000
4399.400000, 14.270500
4400.200000, 14.207500
4401.010000, 14.146200
4401.810000, 14.085000
4402.610000, 14.026600
4403.420000, 13.968700
4404.220000, 13.912800
4405.020000, 13.858600
4405.830000, 13.805000
4406.630000, 13.753500
4407.430000, 13.702100
4408.240000, 13.652700
4409.040000, 13.603500
4409.840000, 13.555900
4410.650000, 13.509500
4411.450000, 13.463600
4412.260000, 13.419300
4413.060000, 13.375000
4413.860000, 13.331600
4414.670000, 13.288300
4415.470000, 13.246100
4416.270000, 13.204800
4417.080000, 13.164200
4417.880000, 13.126600
4418.680000, 13.089000
4419.490000, 13.054000
4420.290000, 13.019500
4421.090000, 12.985700
4421.900000, 12.952500
4422.700000, 12.919500
4423.500000, 12.887500
4424.310000, 12.855500
4425.110000, 12.825700
4425.920000, 12.796500
4426.720000, 12.768900
4427.520000, 12.743300
4428.330000, 12.718000
4429.130000, 12.695200
4429.930000, 12.672400
4430.740000, 12.651300
4431.540000, 12.630800
4432.340000, 12.611200
4433.150000, 12.592900
4433.950000, 12.574700
4434.750000, 12.558300
4435.560000, 12.541900
4436.360000, 12.526600
4437.160000, 12.511700
4437.970000, 12.497600
4438.770000, 12.485100
4439.580000, 12.472600
4440.380000, 12.463200
4441.180000, 12.453900
4441.990000, 12.446300
4442.790000, 12.439900
4443.590000, 12.433900
4444.400000, 12.429300
4445.200000, 12.424800
4446.000000, 12.421500
4446.810000, 12.418400
4447.610000, 12.415900
4448.410000, 12.414000
4449.220000, 12.412300
4450.020000, 12.412000
4450.830000, 12.411700
4451.630000, 12.413400
4452.430000, 12.415800
4453.240000, 12.419200
4454.040000, 12.424400
4454.840000, 12.429500
4455.650000, 12.436200
4456.450000, 12.442800
4457.250000, 12.449700
4458.060000, 12.456800
4458.860000, 12.464100
4459.660000, 12.472200
4460.470000, 12.480200
4461.270000, 12.490300
4462.070000, 12.500900
4462.880000, 12.512700
4463.680000, 12.526200
4464.490000, 12.539800
4465.290000, 12.555100
4466.090000, 12.570400
4466.900000, 12.586200
4467.700000, 12.602300
4468.500000, 12.618700
4469.310000, 12.636000
4470.110000, 12.653300
4470.910000, 12.672200
4471.720000, 12.691300
4472.520000, 12.711300
4473.320000, 12.732400
4474.130000, 12.753600
4474.930000, 12.776500
4475.730000, 12.799400
4476.540000, 12.823400
4477.340000, 12.848000
4478.150000, 12.872800
4478.950000, 12.898200
4479.750000, 12.923600
4480.560000, 12.948900
4481.360000, 12.974200
4482.160000, 12.999800
4482.970000, 13.025600
4483.770000, 13.051500
4484.570000, 13.079100
4485.380000, 13.106700
4486.180000, 13.135500
4486.980000, 13.165100
4487.790000, 13.194800
4488.590000, 13.225500
4489.400000, 13.256100
4490.200000, 13.287500
4491.000000, 13.319200
4491.810000, 13.351300
4492.610000, 13.384400
4493.410000, 13.417500
4494.220000, 13.451700
4495.020000, 13.486000
4495.820000, 13.520500
4496.630000, 13.555300
4497.430000, 13.590100
4498.230000, 13.625000
4499.040000, 13.659900
4499.840000, 13.694800
4500.640000, 13.729600
4501.450000, 13.764400
4502.250000, 13.799300
4503.060000, 13.834100
4503.860000, 13.869400
4504.660000, 13.904800
4505.470000, 13.940700
4506.270000, 13.977500
4507.070000, 14.014200
4507.880000, 14.052400
4508.680000, 14.090800
4509.480000, 14.129400
4510.290000, 14.168200
4511.090000, 14.206900
4511.890000, 14.244300
4512.700000, 14.281700
4513.500000, 14.318300
4514.310000, 14.354200
4515.110000, 14.390300
4515.910000, 14.427000
4516.720000, 14.463600
4517.520000, 14.501700
4518.320000, 14.540500
4519.130000, 14.579400
4519.930000, 14.619000
4520.730000, 14.658600
4521.540000, 14.697300
4522.340000, 14.735700
4523.140000, 14.773500
4523.950000, 14.810100
4524.750000, 14.846600
4525.550000, 14.882800
4526.360000, 14.919000
4527.160000, 14.955500
4527.970000, 14.992600
4528.770000, 15.029600
4529.570000, 15.066700
4530.380000, 15.103800
4531.180000, 15.140200
4531.980000, 15.176000
4532.790000, 15.211800
4533.590000, 15.246100
4534.390000, 15.280500
4535.200000, 15.314100
4536.000000, 15.347300
4536.800000, 15.380400
4537.610000, 15.412900
4538.410000, 15.445400
4539.210000, 15.477700
4540.020000, 15.509800
4540.820000, 15.541800
4541.630000, 15.573100
4542.430000, 15.604400
4543.230000, 15.635000
4544.040000, 15.665300
4544.840000, 15.695500
4545.640000, 15.725400
4546.450000, 15.755300
4547.250000, 15.784800
4548.050000, 15.814000
4548.860000, 15.842900
4549.660000, 15.870400
4550.460000, 15.898000
4551.270000, 15.924200
4552.070000, 15.950100
4552.880000, 15.975800
4553.680000, 16.000800
4554.480000, 16.025900
4555.290000, 16.050500
4556.090000, 16.074900
4556.890000, 16.099100
4557.700000, 16.122600
4558.500000, 16.146200
4559.300000, 16.169100
4560.110000, 16.191900
4560.910000, 16.214300
4561.710000, 16.235900
4562.520000, 16.257400
4563.320000, 16.277000
4564.120000, 16.296200
4564.930000, 16.314500
4565.730000, 16.331200
4566.540000, 16.347900
4567.340000, 16.363700
4568.140000, 16.379400
4568.950000, 16.394800
4569.750000, 16.409900
4570.550000, 16.424900
4571.360000, 16.438100
4572.160000, 16.451000
4572.960000, 16.463000
4573.770000, 16.473000
4574.570000, 16.483000
4575.370000, 16.492000
4576.180000, 16.500600
4576.980000, 16.509100
4577.780000, 16.517200
4578.590000, 16.525300
4579.390000, 16.532500
4580.200000, 16.539400
4581.000000, 16.546000
4581.800000, 16.551300
4582.610000, 16.556600
4583.410000, 16.560600
4584.210000, 16.564000
4585.020000, 16.566900
4585.820000, 16.567800
4586.620000, 16.568700
4587.430000, 16.568100
4588.230000, 16.566700
4589.030000, 16.565100
4589.840000, 16.562500
4590.640000, 16.559900
4591.450000, 16.556900
4592.250000, 16.553700
4593.050000, 16.550300
4593.860000, 16.545900
4594.660000, 16.541500
4595.460000, 16.535800
4596.270000, 16.529200
4597.070000, 16.522500
4597.870000, 16.513400
4598.680000, 16.504300
4599.480000, 16.494300
4600.280000, 16.483400
4601.090000, 16.472500
4601.890000, 16.460500
4602.690000, 16.448500
4603.500000, 16.435600
4604.300000, 16.421400
4605.110000, 16.407300
4605.910000, 16.390500
4606.710000, 16.373300
4607.520000, 16.355600
4608.320000, 16.336700
4609.120000, 16.317900
4609.930000, 16.298900
4610.730000, 16.279800
4611.530000, 16.260500
4612.340000, 16.240200
4613.140000, 16.219900
4613.940000, 16.197700
4614.750000, 16.174500
4615.550000, 16.151000
4616.360000, 16.125000
4617.160000, 16.099000
4617.960000, 16.071900
4618.770000, 16.044000
4619.570000, 16.016100
4620.370000, 15.986800
4621.180000, 15.957600
4621.980000, 15.927800
4622.780000, 15.897500
4623.590000, 15.867100
4624.390000, 15.835900
4625.190000, 15.804600
4626.000000, 15.772900
4626.800000, 15.740000
4627.600000, 15.707200
4628.410000, 15.672500
4629.210000, 15.637000
4630.020000, 15.601100
4630.820000, 15.562600
4631.620000, 15.524200
4632.430000, 15.484100
4633.230000, 15.442900
4634.030000, 15.401800
4634.840000, 15.358700
4635.640000, 15.315600
4636.440000, 15.272000
4637.250000, 15.227600
4638.050000, 15.183300
4638.850000, 15.138100
4639.660000, 15.092800
4640.460000, 15.047200
4641.260000, 15.000700
4642.070000, 14.954200
4642.870000, 14.906800
4643.680000, 14.859000
4644.480000, 14.811000
4645.280000, 14.761500
4646.090000, 14.711900
4646.890000, 14.661100
4647.690000, 14.609200
4648.500000, 14.557200
4649.300000, 14.503000
4650.100000, 14.448600
4650.910000, 14.393700
4651.710000, 14.337800
4652.510000, 14.282000
4653.320000, 14.225300
4654.120000, 14.168400
4654.930000, 14.111300
4655.730000, 14.052600
4656.530000, 13.993800
4657.340000, 13.933800
4658.140000, 13.872600
4658.940000, 13.811500
4659.750000, 13.748700
4660.550000, 13.685700
4661.350000, 13.622200
4662.160000, 13.557500
4662.960000, 13.492900
4663.760000, 13.426300
4664.570000, 13.359000
4665.370000, 13.291500
4666.170000, 13.221600
4666.980000, 13.151700
4667.780000, 13.081200
4668.590000, 13.009900
4669.390000, 12.938600
4670.190000, 12.866500
4671.000000, 12.794300
4671.800000, 12.721800
4672.600000, 12.648100
4673.410000, 12.574400
4674.210000, 12.499500
4675.010000, 12.423700
4675.820000, 12.348000
4676.620000, 12.270100
4677.420000, 12.192300
4678.230000, 12.113600
4679.030000, 12.033600
4679.830000, 11.953600
4680.640000, 11.872200
4681.440000, 11.790400
4682.250000, 11.708500
4683.050000, 11.625400
4683.850000, 11.542300
4684.660000, 11.458500
4685.460000, 11.373900
4686.260000, 11.289300
4687.070000, 11.203000
4687.870000, 11.116500
4688.670000, 11.029600
4689.480000, 10.941600
4690.280000, 10.853700
4691.080000, 10.765100
4691.890000, 10.676200
4692.690000, 10.587200
4693.500000, 10.496400
4694.300000, 10.405400
4695.100000, 10.313600
4695.910000, 10.220000
4696.710000, 10.126300
4697.510000, 10.031500
4698.320000, 9.935990
4699.120000, 9.840520
4699.920000, 9.743810
4700.730000, 9.647140
4701.530000, 9.549920
4702.330000, 9.451730
4703.140000, 9.353580
4703.940000, 9.254390
4704.740000, 9.154780
4705.550000, 9.055150
4706.350000, 8.954460
4707.160000, 8.853800
4707.960000, 8.752790
4708.760000, 8.651220
4709.570000, 8.549690
4710.370000, 8.447610
4711.170000, 8.345360
4711.980000, 8.243090
4712.780000, 8.140140
4713.580000, 8.037230
4714.390000, 7.933920
4715.190000, 7.830030
4715.990000, 7.726180
4716.800000, 7.621400
4717.600000, 7.516330
4718.410000, 7.411230
4719.210000, 7.305350
4720.010000, 7.199500
4720.820000, 7.093840
4721.620000, 6.988450
4722.420000, 6.883090
4723.230000, 6.778450
4724.030000, 6.674100
4724.830000, 6.569770
4725.640000, 6.465170
4726.440000, 6.360610
4727.240000, 6.255750
4728.050000, 6.150370
4728.850000, 6.045020
4729.650000, 5.940160
4730.460000, 5.835540
4731.260000, 5.730960
4732.070000, 5.627870
4732.870000, 5.524830
4733.670000, 5.422040
4734.480000, 5.319760
4735.280000, 5.217510
4736.080000, 5.115720
4736.890000, 5.014210
4737.690000, 4.912740
4738.490000, 4.812610
4739.300000, 4.712620
4740.100000, 4.613070
4740.900000, 4.514860
4741.710000, 4.416690
4742.510000, 4.319570
4743.310000, 4.223350
4744.120000, 4.127170
4744.920000, 4.032640
4745.730000, 3.938450
4746.530000, 3.844530
4747.330000, 3.752130
4748.140000, 3.659760
4748.940000, 3.568390
4749.740000, 3.478350
4750.550000, 3.388330
4751.350000, 3.300730
4752.150000, 3.214090
4752.960000, 3.127510
4753.760000, 3.044390
4754.560000, 2.961290
4755.370000, 2.879170
4756.170000, 2.799270
4756.980000, 2.719390
4757.780000, 2.641340
4758.580000, 2.564600
4759.390000, 2.487890
4760.190000, 2.413950
4760.990000, 2.340460
4761.800000, 2.267530
4762.600000, 2.197630
4763.400000, 2.127760
4764.210000, 2.059610
4765.010000, 1.993750
4765.810000, 1.927920
4766.620000, 1.864810
4767.420000, 1.802860
4768.220000, 1.740930
4769.030000, 1.682030
4769.830000, 1.623210
4770.640000, 1.564950
4771.440000, 1.508350
4772.240000, 1.451770
4773.050000, 1.396340
4773.850000, 1.342000
4774.650000, 1.287680
4775.460000, 1.236360
4776.260000, 1.185890
4777.060000, 1.135680
4777.870000, 1.090880
4778.670000, 1.046090
4779.470000, 1.002990
4780.280000, 0.963730
4781.080000, 0.924490
4781.880000, 0.887100
4782.690000, 0.851180
4783.490000, 0.815270
4784.300000, 0.780770
4785.100000, 0.746590
4785.900000, 0.712590
4786.710000, 0.680900
4787.510000, 0.649220
4788.310000, 0.618600
4789.120000, 0.590260
4789.920000, 0.561920
4790.720000, 0.535140
4791.530000, 0.509560
4792.330000, 0.483980
4793.130000, 0.460420
4793.940000, 0.437340
4794.740000, 0.414420
4795.550000, 0.394150
4796.350000, 0.373900
4797.150000, 0.354360
4797.960000, 0.336540
4798.760000, 0.318730
4799.560000, 0.301800
4800.370000, 0.285650
4801.170000, 0.269500
4801.970000, 0.254410
4802.780000, 0.239650
4803.580000, 0.224880
4804.380000, 0.211720
4805.190000, 0.198550
4805.990000, 0.185810
4806.790000, 0.174470
4807.600000, 0.163130
4808.400000, 0.152630
4809.210000, 0.143140
4810.010000, 0.133650
4810.810000, 0.125290
4811.620000, 0.117450
4812.420000, 0.109620
4813.220000, 0.102790
4814.030000, 0.096070
4814.830000, 0.089440
4815.630000, 0.083390
4816.440000, 0.077340
4817.240000, 0.071580
4818.040000, 0.066380
4818.850000, 0.061170
4819.650000, 0.056620
4820.450000, 0.052600
4821.260000, 0.048580
4822.060000, 0.045370
4822.870000, 0.042410
4823.670000, 0.039460
4824.470000, 0.037260
4825.280000, 0.035090
4826.080000, 0.033040
4826.880000, 0.031580
4827.690000, 0.030110
4828.490000, 0.028780
4829.290000, 0.027640
4830.100000, 0.026510
4830.900000, 0.025080
4831.700000, 0.023460
4832.510000, 0.021840
4833.310000, 0.019820
4834.120000, 0.017710
4834.920000, 0.015590
4835.720000, 0.013840
4836.530000, 0.012100
4837.330000, 0.010450
4838.130000, 0.009220
4838.940000, 0.008000
4839.740000, 0.006810
4840.540000, 0.005700
4841.350000, 0.004590
4842.150000, 0.003730
4842.950000, 0.003060
4843.760000, 0.002390
4844.560000, 0.002200
4845.360000, 0.002180
4846.170000, 0.002160
4846.970000, 0.001960
4847.780000, 0.001750
4848.580000, 0.001510
4849.380000, 0.000953
4850.190000, 0.000399
4850.990000, 0.000001
4851.790000, 0.000001
4852.600000, 0.000001
4853.400000, 0.000001
4854.200000, 0.000001
4855.010000, 0.000001
4855.810000, 0.000158
4856.610000, 0.000408
4857.420000, 0.000658
4858.220000, 0.001010
4859.030000, 0.001400
4859.830000, 0.001780
4860.630000, 0.001730
4861.440000, 0.001660
4862.240000, 0.001600
4863.040000, 0.001580
4863.850000, 0.001560
4864.650000, 0.001560
4865.450000, 0.001630
4866.260000, 0.001690
4867.060000, 0.001790
4867.860000, 0.001950
4868.670000, 0.002100
4869.470000, 0.002290
4870.270000, 0.002520
4871.080000, 0.002750
4871.880000, 0.002880
4872.690000, 0.003000
4873.490000, 0.003110
4874.290000, 0.003330
4875.100000, 0.003550
4875.900000, 0.003810
4876.700000, 0.004500
4877.510000, 0.005190
4878.310000, 0.005870
4879.110000, 0.006540
4879.920000, 0.007200
4880.720000, 0.007580
4881.520000, 0.007430
4882.330000, 0.007290
4883.130000, 0.006690
4883.930000, 0.005620
4884.740000, 0.004550
4885.540000, 0.003240
4886.350000, 0.001790
4887.150000, 0.000341
4887.950000, 0.000001
4888.760000, 0.000001
4889.560000, 0.000001
4890.360000, 0.000001
4891.170000, 0.000001
4891.970000, 0.000001
4892.770000, 0.000001
4893.580000, 0.000001
4894.380000, 0.000001
4895.180000, 0.000001
4895.990000, 0.000001
4896.790000, 0.000001
4897.600000, 0.000001
4898.400000, 0.000001
4899.200000, 0.000001
4900.010000, 0.000001
4900.810000, 0.000001
4901.610000, 0.000001
4902.420000, 0.000001
4903.220000, 0.000001
4904.020000, 0.000001
4904.830000, 0.000001
4905.630000, 0.000001
4906.430000, 0.000587
4907.240000, 0.001370
4908.040000, 0.002150
4908.840000, 0.003600
4909.650000, 0.005150
4910.450000, 0.006710
4911.260000, 0.006990
4912.060000, 0.007240
4912.860000, 0.007380
4913.670000, 0.006220
4914.470000, 0.005050
4915.270000, 0.003840
4916.080000, 0.002430
4916.880000, 0.001020
4917.680000, 0.000001
4918.490000, 0.000001
4919.290000, 0.000001
4920.090000, 0.000001
4920.900000, 0.000001
4921.700000, 0.000001
4922.500000, 0.000001
4923.310000, 0.000001
4924.110000, 0.000001
4924.920000, 0.000607
4925.720000, 0.001700
4926.520000, 0.002790
4927.330000, 0.003750
4928.130000, 0.004640
4928.930000, 0.005530
4929.740000, 0.005930
4930.540000, 0.006150
4931.340000, 0.006380
4932.150000, 0.006070
4932.950000, 0.005640
4933.750000, 0.005220
4934.560000, 0.004380
4935.360000, 0.003500
4936.170000, 0.002620
4936.970000, 0.001840
4937.770000, 0.001070
4938.580000, 0.000322
4939.380000, 0.000210
4940.180000, 0.000099
4940.990000, 0.000001
4941.790000, 0.000001
4942.590000, 0.000001
4943.400000, 0.000001
4944.200000, 0.000001
4945.000000, 0.000001
4945.810000, 0.000001
4946.610000, 0.000001
4947.410000, 0.000001
4948.220000, 0.000001
4949.020000, 0.000001
4949.830000, 0.000001
4950.630000, 0.000001
4951.430000, 0.000001
4952.240000, 0.000001
4953.040000, 0.000001
4953.840000, 0.000001
4954.650000, 0.000001
4955.450000, 0.000001
4956.250000, 0.000001
4957.060000, 0.000001
4957.860000, 0.000001
4958.660000, 0.000001
4959.470000, 0.000001
4960.270000, 0.000001
4961.080000, 0.000001
4961.880000, 0.000001
4962.680000, 0.000001
4963.490000, 0.000001
4964.290000, 0.000001
4965.090000, 0.000001
4965.900000, 0.000001
4966.700000, 0.000001
4967.500000, 0.000001
4968.310000, 0.000001
4969.110000, 0.000001
4969.910000, 0.000001
4970.720000, 0.000001
4971.520000, 0.000001
4972.320000, 0.000001
4973.130000, 0.000001
4973.930000, 0.000001
4974.740000, 0.000001
4975.540000, 0.000001
4976.340000, 0.000001
4977.150000, 0.000001
4977.950000, 0.000001
4978.750000, 0.000001
4979.560000, 0.000260
4980.360000, 0.000552
4981.160000, 0.000844
4981.970000, 0.000720
4982.770000, 0.000556
4983.570000, 0.000391
4984.380000, 0.000261
4985.180000, 0.000134
4985.980000, 0.000007
4986.790000, 0.000001
4987.590000, 0.000001
4988.400000, 0.000001
4989.200000, 0.000027
4990.000000, 0.000055
4990.810000, 0.000082
4991.610000, 0.000620
4992.410000, 0.001170
4993.220000, 0.001720
4994.020000, 0.001840
4994.820000, 0.001950
4995.630000, 0.002070
4996.430000, 0.001380
4997.230000, 0.000691
4998.040000, 0.000002
4998.840000, 0.000001
4999.650000, 0.000001
5000.000000, 0.000001
