# Wavelength  (nm), Transmission (%)
200.000000, 0.025628
201.000000, 0.025520
202.000000, 0.025295
203.000000, 0.024872
204.000000, 0.024562
205.000000, 0.024143
206.000000, 0.023944
207.000000, 0.023817
208.000000, 0.023416
209.000000, 0.022996
210.000000, 0.022651
211.000000, 0.022265
212.000000, 0.022121
213.000000, 0.021850
214.000000, 0.021601
215.000000, 0.021310
216.000000, 0.020980
217.000000, 0.020666
218.000000, 0.020479
219.000000, 0.020237
220.000000, 0.020073
221.000000, 0.019895
222.000000, 0.019719
223.000000, 0.019405
224.000000, 0.019171
225.000000, 0.018976
226.000000, 0.018814
227.000000, 0.018679
228.000000, 0.018391
229.000000, 0.018174
230.000000, 0.017976
231.000000, 0.017849
232.000000, 0.017831
233.000000, 0.017429
234.000000, 0.017320
235.000000, 0.017037
236.000000, 0.016986
237.000000, 0.016959
238.000000, 0.016794
239.000000, 0.016512
240.000000, 0.016392
241.000000, 0.016231
242.000000, 0.016167
243.000000, 0.015961
244.000000, 0.015837
245.000000, 0.015657
246.000000, 0.015429
247.000000, 0.015297
248.000000, 0.015341
249.000000, 0.015218
250.000000, 0.015080
251.000000, 0.014988
252.000000, 0.014867
253.000000, 0.014578
254.000000, 0.014606
255.000000, 0.014520
256.000000, 0.014389
257.000000, 0.014223
258.000000, 0.014041
259.000000, 0.013939
260.000000, 0.013853
261.000000, 0.013896
262.000000, 0.013810
263.000000, 0.013597
264.000000, 0.013517
265.000000, 0.013417
266.000000, 0.013371
267.000000, 0.013340
268.000000, 0.013208
269.000000, 0.013083
270.000000, 0.013041
271.000000, 0.012899
272.000000, 0.012856
273.000000, 0.012813
274.000000, 0.012725
275.000000, 0.012595
276.000000, 0.012587
277.000000, 0.012403
278.000000, 0.012281
279.000000, 0.012348
280.000000, 0.012256
281.000000, 0.012115
282.000000, 0.012115
283.000000, 0.011975
284.000000, 0.012012
285.000000, 0.012018
286.000000, 0.011904
287.000000, 0.011828
288.000000, 0.011718
289.000000, 0.011585
290.000000, 0.011617
291.000000, 0.011658
292.000000, 0.011701
293.000000, 0.011519
294.000000, 0.011382
295.000000, 0.011392
296.000000, 0.011276
297.000000, 0.011386
298.000000, 0.011380
299.000000, 0.011480
300.000000, 0.011816
301.000000, 0.012923
302.000000, 0.014768
303.000000, 0.018487
304.000000, 0.025453
305.000000, 0.037272
306.000000, 0.057466
307.000000, 0.090829
308.000000, 0.143214
309.000000, 0.222517
310.000000, 0.335941
311.000000, 0.491049
312.000000, 0.700258
313.000000, 0.975628
314.000000, 1.330005
315.000000, 1.773459
316.000000, 2.313129
317.000000, 2.958041
318.000000, 3.737247
319.000000, 4.619872
320.000000, 5.663351
321.000000, 6.837859
322.000000, 8.119781
323.000000, 9.443166
324.000000, 10.932169
325.000000, 12.541231
326.000000, 14.220593
327.000000, 16.131853
328.000000, 18.038999
329.000000, 19.901575
330.000000, 21.915464
331.000000, 23.950201
332.000000, 25.980079
333.000000, 28.073572
334.000000, 30.085558
335.000000, 31.977322
336.000000, 34.009067
337.000000, 36.052692
338.000000, 38.082806
339.000000, 40.099106
340.000000, 41.964550
341.000000, 43.651740
342.000000, 45.519402
343.000000, 47.139392
344.000000, 48.871609
345.000000, 50.506570
346.000000, 52.075458
347.000000, 53.195220
348.000000, 54.620801
349.000000, 55.927420
350.000000, 57.354305
351.000000, 58.928703
352.000000, 60.140820
353.000000, 60.822277
354.000000, 61.939256
355.000000, 62.887804
356.000000, 63.934186
357.000000, 65.193577
358.000000, 66.045332
359.000000, 66.394094
360.000000, 67.285318
361.000000, 67.878035
362.000000, 68.767826
363.000000, 69.699163
364.000000, 70.159235
365.000000, 70.385475
366.000000, 70.912688
367.000000, 71.129606
368.000000, 71.334265
369.000000, 71.804941
370.000000, 71.624258
371.000000, 71.184297
372.000000, 70.802500
373.000000, 70.292771
374.000000, 69.778105
375.000000, 69.516165
376.000000, 68.965920
377.000000, 68.210637
378.000000, 68.582117
379.000000, 68.856700
380.000000, 69.592352
381.000000, 70.029929
382.000000, 70.916881
383.000000, 71.750683
384.000000, 73.279922
385.000000, 74.081815
386.000000, 74.896475
387.000000, 75.219908
388.000000, 75.907330
389.000000, 76.565953
390.000000, 77.514779
391.000000, 77.802412
392.000000, 78.207696
393.000000, 78.088437
394.000000, 78.360224
395.000000, 78.755367
396.000000, 79.538618
397.000000, 79.652765
398.000000, 79.826075
399.000000, 79.419707
400.000000, 79.363702
401.000000, 79.412723
402.000000, 79.917591
403.000000, 79.884262
404.000000, 79.939596
405.000000, 79.471413
406.000000, 79.561756
407.000000, 79.336855
408.000000, 79.728064
409.000000, 79.869996
410.000000, 79.664547
411.000000, 79.063582
412.000000, 79.087284
413.000000, 79.193690
414.000000, 79.439283
415.000000, 79.460877
416.000000, 79.370024
417.000000, 78.980694
418.000000, 79.154295
419.000000, 79.397357
420.000000, 79.716760
421.000000, 79.978731
422.000000, 79.780219
423.000000, 79.432752
424.000000, 79.553312
425.000000, 79.747538
426.000000, 80.093381
427.000000, 80.285162
428.000000, 80.210568
429.000000, 79.818776
430.000000, 79.825800
431.000000, 79.997689
432.000000, 80.255162
433.000000, 80.153776
434.000000, 80.074705
435.000000, 79.835072
436.000000, 79.821206
437.000000, 79.871975
438.000000, 80.129350
439.000000, 80.276968
440.000000, 80.159561
441.000000, 79.695438
442.000000, 79.712548
443.000000, 79.817552
444.000000, 80.123511
445.000000, 80.496290
446.000000, 80.363171
447.000000, 80.042237
448.000000, 80.134305
449.000000, 80.307674
450.000000, 80.775925
451.000000, 81.148803
452.000000, 80.925196
453.000000, 80.599684
454.000000, 80.743392
455.000000, 80.924535
456.000000, 81.269770
457.000000, 81.545090
458.000000, 81.416823
459.000000, 81.043864
460.000000, 81.016053
461.000000, 81.170684
462.000000, 81.552008
463.000000, 81.818254
464.000000, 81.482102
465.000000, 81.107612
466.000000, 81.163117
467.000000, 81.009078
468.000000, 81.349441
469.000000, 81.899696
470.000000, 81.507248
471.000000, 80.946767
472.000000, 80.904920
473.000000, 80.802774
474.000000, 81.148697
475.000000, 81.597610
476.000000, 81.275099
477.000000, 80.704292
478.000000, 80.688416
479.000000, 80.676771
480.000000, 80.920390
481.000000, 81.188934
482.000000, 80.858996
483.000000, 80.432926
484.000000, 80.410786
485.000000, 80.433391
486.000000, 80.694905
487.000000, 80.896260
488.000000, 80.553260
489.000000, 80.321310
490.000000, 80.473918
491.000000, 80.494539
492.000000, 80.489954
493.000000, 80.517133
494.000000, 80.297369
495.000000, 80.097302
496.000000, 80.155439
497.000000, 80.185586
498.000000, 80.430834
499.000000, 80.405680
500.000000, 80.080547
501.000000, 79.905222
502.000000, 79.969066
503.000000, 80.033184
504.000000, 80.290357
505.000000, 80.419272
506.000000, 80.102480
507.000000, 80.018610
508.000000, 80.028953
509.000000, 80.010592
510.000000, 80.181039
511.000000, 80.323307
512.000000, 80.091833
513.000000, 79.913041
514.000000, 79.954546
515.000000, 79.958158
516.000000, 80.251726
517.000000, 80.466907
518.000000, 80.267544
519.000000, 80.286918
520.000000, 80.273880
521.000000, 80.345303
522.000000, 80.496703
523.000000, 80.578833
524.000000, 80.430954
525.000000, 80.398525
526.000000, 80.410378
527.000000, 80.421550
528.000000, 80.557246
529.000000, 80.813258
530.000000, 80.673287
531.000000, 80.617171
532.000000, 80.647954
533.000000, 80.724651
534.000000, 80.824208
535.000000, 80.919369
536.000000, 80.774120
537.000000, 80.654320
538.000000, 80.719033
539.000000, 80.730964
540.000000, 81.061558
541.000000, 81.265405
542.000000, 80.907767
543.000000, 80.884096
544.000000, 80.912246
545.000000, 81.097928
546.000000, 81.179366
547.000000, 81.245902
548.000000, 81.025413
549.000000, 81.067995
550.000000, 81.129721
551.000000, 81.363546
552.000000, 81.174205
553.000000, 80.860413
554.000000, 80.756167
555.000000, 80.816971
556.000000, 80.731566
557.000000, 80.832803
558.000000, 80.891833
559.000000, 81.045158
560.000000, 80.810026
561.000000, 80.867863
562.000000, 80.576483
563.000000, 80.409749
564.000000, 80.388321
565.000000, 80.446292
566.000000, 80.807620
567.000000, 80.605702
568.000000, 80.191227
569.000000, 79.971337
570.000000, 79.911359
571.000000, 80.015201
572.000000, 80.343054
573.000000, 80.085165
574.000000, 79.853860
575.000000, 79.649946
576.000000, 79.535384
577.000000, 79.659599
578.000000, 80.099277
579.000000, 79.853708
580.000000, 79.331840
581.000000, 79.156475
582.000000, 79.090785
583.000000, 79.317945
584.000000, 79.736293
585.000000, 79.409367
586.000000, 79.170358
587.000000, 79.019778
588.000000, 78.875253
589.000000, 79.042814
590.000000, 79.476796
591.000000, 79.144528
592.000000, 78.968666
593.000000, 78.844822
594.000000, 78.783835
595.000000, 78.989882
596.000000, 79.444165
597.000000, 79.176024
598.000000, 78.932960
599.000000, 79.088888
600.000000, 79.115088
601.000000, 79.083073
602.000000, 79.345689
603.000000, 79.238433
604.000000, 78.897555
605.000000, 79.078171
606.000000, 79.020384
607.000000, 79.050489
608.000000, 79.491625
609.000000, 79.356091
610.000000, 79.012076
611.000000, 79.049693
612.000000, 78.962695
613.000000, 79.106087
614.000000, 79.411206
615.000000, 79.318834
616.000000, 79.171278
617.000000, 79.285943
618.000000, 79.147053
619.000000, 79.330193
620.000000, 79.617943
621.000000, 79.116291
622.000000, 79.155192
623.000000, 79.390302
624.000000, 79.280689
625.000000, 79.442543
626.000000, 79.819270
627.000000, 79.161891
628.000000, 78.930513
629.000000, 79.227933
630.000000, 79.011705
631.000000, 79.286674
632.000000, 79.456089
633.000000, 78.992965
634.000000, 78.865412
635.000000, 79.067139
636.000000, 78.859719
637.000000, 79.157163
638.000000, 79.188611
639.000000, 78.935609
640.000000, 78.738163
641.000000, 78.896590
642.000000, 78.802112
643.000000, 78.997245
644.000000, 78.945504
645.000000, 78.679956
646.000000, 78.528608
647.000000, 78.791626
648.000000, 78.654186
649.000000, 78.755975
650.000000, 78.869320
651.000000, 78.628970
652.000000, 78.515656
653.000000, 78.770772
654.000000, 78.592414
655.000000, 79.013002
656.000000, 79.071559
657.000000, 78.566378
658.000000, 78.522636
659.000000, 78.841714
660.000000, 78.631078
661.000000, 78.982652
662.000000, 79.151870
663.000000, 78.588327
664.000000, 78.578971
665.000000, 79.125113
666.000000, 78.768461
667.000000, 79.223144
668.000000, 79.639806
669.000000, 79.152494
670.000000, 79.051013
671.000000, 79.282407
672.000000, 79.528056
673.000000, 79.717730
674.000000, 79.535043
675.000000, 79.509821
676.000000, 79.452783
677.000000, 79.859183
678.000000, 79.872841
679.000000, 80.260382
680.000000, 80.121767
681.000000, 80.144894
682.000000, 80.275340
683.000000, 80.655607
684.000000, 80.760214
685.000000, 80.726110
686.000000, 80.991206
687.000000, 80.603950
688.000000, 80.623207
689.000000, 81.322710
690.000000, 80.956999
691.000000, 80.779229
692.000000, 81.430154
693.000000, 81.551741
694.000000, 81.344260
695.000000, 81.714585
696.000000, 81.229854
697.000000, 81.817660
698.000000, 82.252282
699.000000, 81.483287
700.000000, 81.471325
701.000000, 82.190209
702.000000, 81.725042
703.000000, 81.978200
704.000000, 82.477144
705.000000, 81.840259
706.000000, 81.881855
707.000000, 82.130141
708.000000, 81.729852
709.000000, 82.166625
710.000000, 82.673595
711.000000, 81.820788
712.000000, 82.159810
713.000000, 82.368321
714.000000, 82.072520
715.000000, 82.452955
716.000000, 82.731908
717.000000, 81.937343
718.000000, 82.128601
719.000000, 82.243741
720.000000, 81.939352
721.000000, 82.340693
722.000000, 82.530718
723.000000, 81.878421
724.000000, 81.972573
725.000000, 82.137432
726.000000, 82.039338
727.000000, 82.235776
728.000000, 82.433309
729.000000, 81.865689
730.000000, 81.932965
731.000000, 81.926837
732.000000, 81.577582
733.000000, 82.068949
734.000000, 82.355705
735.000000, 81.626679
736.000000, 81.810338
737.000000, 81.914146
738.000000, 81.751834
739.000000, 81.914839
740.000000, 82.215295
741.000000, 81.809626
742.000000, 81.665809
743.000000, 81.675671
744.000000, 81.823178
745.000000, 81.692089
746.000000, 81.997486
747.000000, 81.612885
748.000000, 81.328186
749.000000, 81.432532
750.000000, 81.799982
751.000000, 81.759004
752.000000, 81.759069
753.000000, 81.747974
754.000000, 81.686794
755.000000, 81.656114
756.000000, 81.625738
757.000000, 81.575280
758.000000, 81.555280
759.000000, 81.539208
760.000000, 81.474890
761.000000, 81.428137
762.000000, 81.396472
763.000000, 81.358048
764.000000, 81.325633
765.000000, 81.308800
766.000000, 81.246378
767.000000, 81.196351
768.000000, 81.165447
769.000000, 81.117163
770.000000, 81.106491
771.000000, 81.080228
772.000000, 81.012596
773.000000, 80.971006
774.000000, 80.947722
775.000000, 80.904363
776.000000, 80.889699
777.000000, 80.862650
778.000000, 80.796832
779.000000, 80.754669
780.000000, 80.722123
781.000000, 80.672162
782.000000, 80.649712
783.000000, 80.616551
784.000000, 80.548961
785.000000, 80.499885
786.000000, 80.467017
787.000000, 80.422963
788.000000, 80.404057
789.000000, 80.370053
790.000000, 80.300943
791.000000, 80.255772
792.000000, 80.229989
793.000000, 80.179393
794.000000, 80.164125
795.000000, 80.129537
796.000000, 80.058257
797.000000, 80.006594
798.000000, 79.972047
799.000000, 79.927097
800.000000, 79.907760
801.000000, 79.871051
802.000000, 79.812646
803.000000, 79.770831
804.000000, 79.747471
805.000000, 79.719908
806.000000, 79.702510
807.000000, 79.670158
808.000000, 79.609940
809.000000, 79.581184
810.000000, 79.552695
811.000000, 79.496506
812.000000, 79.457615
813.000000, 79.393052
814.000000, 79.333954
815.000000, 79.326553
816.000000, 79.325375
817.000000, 79.286140
818.000000, 79.247206
819.000000, 79.195959
820.000000, 79.135482
821.000000, 79.099297
822.000000, 79.084078
823.000000, 79.043748
824.000000, 78.988784
825.000000, 78.930104
826.000000, 78.872858
827.000000, 78.850201
828.000000, 78.821675
829.000000, 78.765027
830.000000, 78.727715
831.000000, 78.693669
832.000000, 78.657541
833.000000, 78.639291
834.000000, 78.601926
835.000000, 78.541806
836.000000, 78.503580
837.000000, 78.475723
838.000000, 78.438160
839.000000, 78.413253
840.000000, 78.381077
841.000000, 78.316923
842.000000, 78.279964
843.000000, 78.251699
844.000000, 78.215637
845.000000, 78.189487
846.000000, 78.178150
847.000000, 78.161027
848.000000, 78.144344
849.000000, 78.115546
850.000000, 78.079904
851.000000, 78.064006
852.000000, 78.025990
853.000000, 77.958594
854.000000, 77.910019
855.000000, 77.888943
856.000000, 77.870155
857.000000, 77.843574
858.000000, 77.813901
859.000000, 77.770520
860.000000, 77.732728
861.000000, 77.721813
862.000000, 77.724994
863.000000, 77.677498
864.000000, 77.586056
865.000000, 77.480017
866.000000, 77.371184
867.000000, 77.295204
868.000000, 77.230888
869.000000, 77.195777
870.000000, 77.161085
871.000000, 77.058558
872.000000, 76.854850
873.000000, 76.657762
874.000000, 76.549707
875.000000, 76.555660
876.000000, 76.629469
877.000000, 76.586316
878.000000, 76.428818
879.000000, 76.292884
880.000000, 76.230687
881.000000, 76.111389
882.000000, 76.018264
883.000000, 76.030256
884.000000, 75.989870
885.000000, 75.929068
886.000000, 75.890291
887.000000, 75.877075
888.000000, 75.835042
889.000000, 75.705287
890.000000, 75.571008
891.000000, 75.557439
892.000000, 75.599346
893.000000, 75.600749
894.000000, 75.539339
895.000000, 75.512849
896.000000, 75.566348
897.000000, 75.675812
898.000000, 75.719649
899.000000, 75.628716
900.000000, 75.584330
901.000000, 75.566575
902.000000, 75.505431
903.000000, 75.507264
904.000000, 75.522225
905.000000, 75.464582
906.000000, 75.380451
907.000000, 75.267751
908.000000, 75.126715
909.000000, 75.139248
910.000000, 75.329577
911.000000, 75.532752
912.000000, 75.592114
913.000000, 75.405058
914.000000, 75.067428
915.000000, 74.861698
916.000000, 74.838741
917.000000, 74.857842
918.000000, 74.937200
919.000000, 74.969014
920.000000, 74.828633
921.000000, 74.601231
922.000000, 74.518852
923.000000, 74.623492
924.000000, 74.745537
925.000000, 74.736568
926.000000, 74.592193
927.000000, 74.654639
928.000000, 74.830033
929.000000, 74.732508
930.000000, 74.395796
931.000000, 74.220758
932.000000, 74.435477
933.000000, 74.694042
934.000000, 74.719847
935.000000, 74.583677
936.000000, 74.378917
937.000000, 74.242447
938.000000, 74.324515
939.000000, 74.459201
940.000000, 74.454081
941.000000, 74.366998
942.000000, 74.230989
943.000000, 74.144255
944.000000, 74.135596
945.000000, 74.217630
946.000000, 74.086468
947.000000, 73.856379
948.000000, 73.976895
949.000000, 74.295656
950.000000, 74.297431
951.000000, 73.941351
952.000000, 73.715141
953.000000, 73.788869
954.000000, 73.800243
955.000000, 73.816714
956.000000, 73.716550
957.000000, 73.503970
958.000000, 73.558572
959.000000, 73.749728
960.000000, 73.792466
961.000000, 73.688053
962.000000, 73.565768
963.000000, 73.601088
964.000000, 73.632038
965.000000, 73.740126
966.000000, 73.835368
967.000000, 73.559402
968.000000, 73.196713
969.000000, 73.244639
970.000000, 73.461136
971.000000, 73.435731
972.000000, 73.226765
973.000000, 73.223165
974.000000, 73.208605
975.000000, 73.319505
976.000000, 73.442027
977.000000, 73.374153
978.000000, 73.266627
979.000000, 73.155626
980.000000, 73.157390
981.000000, 73.071637
982.000000, 72.989207
983.000000, 73.016433
984.000000, 73.035518
985.000000, 72.885363
986.000000, 72.926925
987.000000, 73.036240
988.000000, 72.927297
989.000000, 72.782855
990.000000, 72.817337
991.000000, 72.838362
992.000000, 72.791307
993.000000, 72.975918
994.000000, 72.946274
995.000000, 72.754672
996.000000, 72.549535
997.000000, 72.556238
998.000000, 72.746536
999.000000, 72.757235
1000.000000, 72.791704
1001.000000, 72.712938
1002.000000, 72.708084
1003.000000, 72.720002
1004.000000, 72.746271
1005.000000, 72.671165
1006.000000, 72.588907
1007.000000, 72.720227
1008.000000, 72.870432
1009.000000, 72.824072
1010.000000, 72.711734
1011.000000, 72.683546
1012.000000, 72.676729
1013.000000, 72.807271
1014.000000, 72.835637
1015.000000, 72.880949
1016.000000, 72.744897
1017.000000, 72.525891
1018.000000, 72.610510
1019.000000, 72.732223
1020.000000, 72.699172
1021.000000, 72.529176
1022.000000, 72.359585
1023.000000, 72.222848
1024.000000, 72.284422
1025.000000, 72.438615
1026.000000, 72.341887
1027.000000, 72.120733
1028.000000, 72.050984
1029.000000, 72.222848
1030.000000, 72.322353
1031.000000, 72.224420
1032.000000, 72.071629
1033.000000, 71.955062
1034.000000, 71.897230
1035.000000, 72.043314
1036.000000, 72.220338
1037.000000, 72.159636
1038.000000, 72.042443
1039.000000, 71.985013
1040.000000, 71.890689
1041.000000, 71.874739
1042.000000, 72.109023
1043.000000, 72.196818
1044.000000, 72.150886
1045.000000, 72.097944
1046.000000, 72.049027
1047.000000, 71.973649
1048.000000, 71.950796
1049.000000, 71.935338
1050.000000, 71.932773
1051.000000, 71.938335
1052.000000, 72.006447
1053.000000, 71.962596
1054.000000, 71.738359
1055.000000, 71.470081
1056.000000, 71.450155
1057.000000, 71.534047
1058.000000, 71.641924
1059.000000, 71.682628
1060.000000, 71.702738
1061.000000, 71.499901
1062.000000, 71.427343
1063.000000, 71.417657
1064.000000, 71.460343
1065.000000, 71.617039
1066.000000, 71.773353
1067.000000, 71.827242
1068.000000, 71.751555
1069.000000, 71.583569
1070.000000, 71.341614
1071.000000, 71.223393
1072.000000, 71.375000
1073.000000, 71.579474
1074.000000, 71.759666
1075.000000, 71.727314
1076.000000, 71.688103
1077.000000, 71.619983
1078.000000, 71.614800
1079.000000, 71.753740
1080.000000, 71.935937
1081.000000, 71.822677
1082.000000, 71.736571
1083.000000, 71.689267
1084.000000, 71.605907
1085.000000, 71.564145
1086.000000, 71.462330
1087.000000, 71.449149
1088.000000, 71.488340
1089.000000, 71.719771
1090.000000, 71.846748
1091.000000, 71.790521
1092.000000, 71.748681
1093.000000, 71.659365
1094.000000, 71.605408
1095.000000, 71.532674
1096.000000, 71.601507
1097.000000, 71.727260
1098.000000, 71.646016
1099.000000, 71.530901
1100.000000, 71.523186
1101.000000, 71.471678
1102.000000, 71.418299
1103.000000, 71.478591
1104.000000, 71.539271
1105.000000, 71.560569
1106.000000, 71.557084
1107.000000, 71.581913
1108.000000, 71.490918
1109.000000, 71.475839
1110.000000, 71.448366
1111.000000, 71.293615
1112.000000, 71.396835
1113.000000, 71.412073
1114.000000, 71.405754
1115.000000, 71.372155
1116.000000, 71.350611
1117.000000, 71.359314
1118.000000, 71.399230
1119.000000, 71.431770
1120.000000, 71.474205
1121.000000, 71.577884
1122.000000, 71.550579
1123.000000, 71.492478
1124.000000, 71.471301
1125.000000, 71.417049
1126.000000, 71.341162
1127.000000, 71.452335
1128.000000, 71.523799
1129.000000, 71.595373
1130.000000, 71.736674
1131.000000, 71.597044
1132.000000, 71.446857
1133.000000, 71.407021
1134.000000, 71.411135
1135.000000, 71.524368
1136.000000, 71.528367
1137.000000, 71.460170
1138.000000, 71.441524
1139.000000, 71.454397
1140.000000, 71.397599
1141.000000, 71.358649
1142.000000, 71.317867
1143.000000, 71.227528
1144.000000, 71.154416
1145.000000, 71.138223
1146.000000, 71.093848
1147.000000, 71.213904
1148.000000, 71.210350
1149.000000, 71.278892
1150.000000, 71.378732
1151.000000, 71.479213
1152.000000, 71.538989
1153.000000, 71.574858
1154.000000, 71.475073
1155.000000, 71.445838
1156.000000, 71.441835
1157.000000, 71.412759
1158.000000, 71.335619
1159.000000, 71.266836
1160.000000, 71.298750
1161.000000, 71.357197
1162.000000, 71.459218
1163.000000, 71.606687
1164.000000, 71.734173
1165.000000, 71.696672
1166.000000, 71.527271
1167.000000, 71.550419
1168.000000, 71.548221
1169.000000, 71.603000
1170.000000, 71.709092
1171.000000, 71.786785
1172.000000, 71.813981
1173.000000, 71.778259
1174.000000, 71.632167
1175.000000, 71.505920
1176.000000, 71.389376
1177.000000, 71.353472
1178.000000, 71.470985
1179.000000, 71.511261
1180.000000, 71.503708
1181.000000, 71.491815
1182.000000, 71.508087
1183.000000, 71.554346
1184.000000, 71.645469
1185.000000, 71.741398
1186.000000, 71.767983
1187.000000, 71.775755
1188.000000, 71.800758
1189.000000, 71.890336
1190.000000, 71.922250
1191.000000, 71.862894
1192.000000, 71.869781
1193.000000, 72.027044
1194.000000, 72.175617
1195.000000, 72.283982
1196.000000, 72.316760
1197.000000, 72.260322
1198.000000, 72.386621
1199.000000, 72.496438
1200.000000, 72.470463
1201.000000, 72.475011
1202.000000, 72.487281
1203.000000, 72.380067
1204.000000, 72.391300
1205.000000, 72.570823
1206.000000, 72.688855
1207.000000, 72.626715
1208.000000, 72.493461
1209.000000, 72.370490
1210.000000, 72.344149
1211.000000, 72.343823
1212.000000, 72.353229
1213.000000, 72.329554
1214.000000, 72.385597
1215.000000, 72.454299
1216.000000, 72.415313
1217.000000, 72.206252
1218.000000, 72.121713
1219.000000, 72.300981
1220.000000, 72.340481
1221.000000, 72.242285
1222.000000, 72.245549
1223.000000, 72.147167
1224.000000, 71.967309
1225.000000, 71.872522
1226.000000, 71.855238
1227.000000, 71.820378
1228.000000, 71.834114
1229.000000, 71.861505
1230.000000, 71.871388
1231.000000, 71.832009
1232.000000, 71.840486
1233.000000, 71.854683
1234.000000, 71.968775
1235.000000, 72.239942
1236.000000, 72.423597
1237.000000, 72.440512
1238.000000, 72.315191
1239.000000, 72.339342
1240.000000, 72.566793
1241.000000, 72.785694
1242.000000, 73.001462
1243.000000, 73.068612
1244.000000, 73.005929
1245.000000, 72.998976
1246.000000, 73.024467
1247.000000, 73.041225
1248.000000, 73.049411
1249.000000, 73.071000
1250.000000, 73.108208
1251.000000, 73.123520
1252.000000, 73.082542
1253.000000, 72.945396
1254.000000, 72.725292
1255.000000, 72.590443
1256.000000, 72.534973
1257.000000, 72.465378
1258.000000, 72.358535
1259.000000, 72.299726
1260.000000, 72.388304
1261.000000, 72.465677
1262.000000, 72.429770
1263.000000, 72.332042
1264.000000, 72.268968
1265.000000, 72.279552
1266.000000, 72.287736
1267.000000, 72.316435
1268.000000, 72.368491
1269.000000, 72.421015
1270.000000, 72.508806
1271.000000, 72.663429
1272.000000, 72.785439
1273.000000, 72.836141
1274.000000, 72.927678
1275.000000, 73.080600
1276.000000, 73.262110
1277.000000, 73.407365
1278.000000, 73.431604
1279.000000, 73.322040
1280.000000, 73.184246
1281.000000, 73.122119
1282.000000, 73.178230
1283.000000, 73.347654
1284.000000, 73.557739
1285.000000, 73.746070
1286.000000, 73.950610
1287.000000, 74.151086
1288.000000, 74.292254
1289.000000, 74.335039
1290.000000, 74.273442
1291.000000, 74.217936
1292.000000, 74.204065
1293.000000, 74.135735
1294.000000, 73.970232
1295.000000, 73.824302
1296.000000, 73.825953
1297.000000, 73.895507
1298.000000, 73.969629
1299.000000, 74.096130
1300.000000, 74.284175
1301.000000, 74.371624
1302.000000, 74.266941
1303.000000, 74.063850
1304.000000, 73.871547
1305.000000, 73.711710
1306.000000, 73.701468
1307.000000, 73.828181
1308.000000, 73.929688
1309.000000, 73.980981
1310.000000, 73.981963
1311.000000, 73.975914
1312.000000, 74.100546
1313.000000, 74.363594
1314.000000, 74.597042
1315.000000, 74.683193
1316.000000, 74.697248
1317.000000, 74.619435
1318.000000, 74.495641
1319.000000, 74.424774
1320.000000, 74.505307
1321.000000, 74.660558
1322.000000, 74.805238
1323.000000, 74.907039
1324.000000, 74.951224
1325.000000, 74.860648
1326.000000, 74.744410
1327.000000, 74.755633
1328.000000, 74.847712
1329.000000, 74.895819
1330.000000, 74.862136
1331.000000, 74.702229
1332.000000, 74.483409
1333.000000, 74.228989
1334.000000, 74.005230
1335.000000, 73.888392
1336.000000, 73.910601
1337.000000, 73.959622
1338.000000, 74.040310
1339.000000, 74.189808
1340.000000, 74.395206
1341.000000, 74.663544
1342.000000, 74.947550
1343.000000, 75.005834
1344.000000, 74.928145
1345.000000, 74.793347
1346.000000, 74.853239
1347.000000, 75.086200
1348.000000, 75.431094
1349.000000, 75.674166
1350.000000, 75.917932
1351.000000, 76.089233
1352.000000, 76.080062
1353.000000, 75.995221
1354.000000, 75.896239
1355.000000, 76.011615
1356.000000, 76.185962
1357.000000, 76.213611
1358.000000, 75.941615
1359.000000, 75.398182
1360.000000, 74.871704
1361.000000, 74.724455
1362.000000, 74.931012
1363.000000, 75.172462
1364.000000, 75.486445
1365.000000, 75.537717
1366.000000, 75.055863
1367.000000, 74.632044
1368.000000, 74.626052
1369.000000, 74.630564
1370.000000, 74.746871
1371.000000, 75.278050
1372.000000, 75.736171
1373.000000, 75.805573
1374.000000, 75.628128
1375.000000, 75.617635
1376.000000, 75.851577
1377.000000, 76.342840
1378.000000, 76.737024
1379.000000, 76.657961
1380.000000, 76.178903
1381.000000, 75.770476
1382.000000, 75.692584
1383.000000, 75.673600
1384.000000, 75.647307
1385.000000, 75.977861
1386.000000, 76.143213
1387.000000, 76.152052
1388.000000, 76.454240
1389.000000, 76.604697
1390.000000, 76.255685
1391.000000, 76.067327
1392.000000, 76.233595
1393.000000, 76.038025
1394.000000, 75.595216
1395.000000, 75.499325
1396.000000, 75.568447
1397.000000, 75.439627
1398.000000, 75.412775
1399.000000, 75.724030
1400.000000, 76.266324
1401.000000, 76.609694
1402.000000, 76.639245
1403.000000, 76.520609
1404.000000, 76.498765
1405.000000, 76.559112
1406.000000, 76.429655
1407.000000, 75.957970
1408.000000, 75.652629
1409.000000, 75.874271
1410.000000, 76.020371
1411.000000, 76.014149
1412.000000, 76.308093
1413.000000, 76.723299
1414.000000, 76.783504
1415.000000, 76.564179
1416.000000, 76.766947
1417.000000, 77.241545
1418.000000, 77.550372
1419.000000, 77.473284
1420.000000, 77.156468
1421.000000, 76.913987
1422.000000, 76.863443
1423.000000, 76.815437
1424.000000, 76.791518
1425.000000, 76.848747
1426.000000, 77.081320
1427.000000, 77.231065
1428.000000, 77.200925
1429.000000, 77.120797
1430.000000, 77.239708
1431.000000, 77.451985
1432.000000, 77.562240
1433.000000, 77.649315
1434.000000, 77.795234
1435.000000, 77.734105
1436.000000, 77.637899
1437.000000, 77.414872
1438.000000, 77.167818
1439.000000, 77.154849
1440.000000, 77.541772
1441.000000, 77.967097
1442.000000, 78.211294
1443.000000, 78.203808
1444.000000, 78.256904
1445.000000, 78.215742
1446.000000, 77.974985
1447.000000, 77.641267
1448.000000, 77.603443
1449.000000, 77.705089
1450.000000, 77.789047
1451.000000, 77.842725
1452.000000, 77.783083
1453.000000, 77.529865
1454.000000, 77.534451
1455.000000, 77.637788
1456.000000, 77.734644
1457.000000, 77.838394
1458.000000, 77.963840
1459.000000, 77.931565
1460.000000, 77.765642
1461.000000, 77.673107
1462.000000, 77.828415
1463.000000, 77.994703
1464.000000, 78.032443
1465.000000, 78.037624
1466.000000, 78.118953
1467.000000, 78.153508
1468.000000, 77.914733
1469.000000, 77.694589
1470.000000, 77.551633
1471.000000, 77.461822
1472.000000, 77.520747
1473.000000, 77.589380
1474.000000, 77.566432
1475.000000, 77.589035
1476.000000, 77.603725
1477.000000, 77.600877
1478.000000, 77.514143
1479.000000, 77.519494
1480.000000, 77.596105
1481.000000, 77.668904
1482.000000, 77.624909
1483.000000, 77.705376
1484.000000, 77.999121
1485.000000, 78.344519
1486.000000, 78.561669
1487.000000, 78.819634
1488.000000, 79.014607
1489.000000, 79.196101
1490.000000, 79.335005
1491.000000, 79.487753
1492.000000, 79.484186
1493.000000, 79.516495
1494.000000, 79.581258
1495.000000, 79.545929
1496.000000, 79.432825
1497.000000, 79.286144
1498.000000, 79.267314
1499.000000, 79.409682
1500.000000, 79.492372
1501.000000, 79.506887
1502.000000, 79.485919
1503.000000, 79.441925
1504.000000, 79.298552
1505.000000, 79.121369
1506.000000, 79.027415
1507.000000, 79.084676
1508.000000, 78.878539
1509.000000, 78.692539
1510.000000, 78.583519
1511.000000, 78.622974
1512.000000, 78.661709
1513.000000, 78.755425
1514.000000, 78.943174
1515.000000, 79.030360
1516.000000, 79.105142
1517.000000, 79.057911
1518.000000, 78.960682
1519.000000, 79.043361
1520.000000, 79.196820
1521.000000, 79.181675
1522.000000, 79.192424
1523.000000, 79.250869
1524.000000, 79.270093
1525.000000, 79.184383
1526.000000, 79.062124
1527.000000, 79.300009
1528.000000, 79.411892
1529.000000, 79.430236
1530.000000, 79.480465
1531.000000, 79.511933
1532.000000, 79.422710
1533.000000, 79.351888
1534.000000, 79.383957
1535.000000, 79.392796
1536.000000, 79.459840
1537.000000, 79.370044
1538.000000, 79.183408
1539.000000, 79.201361
1540.000000, 79.405579
1541.000000, 79.401930
1542.000000, 79.346744
1543.000000, 79.410851
1544.000000, 79.486136
1545.000000, 79.455746
1546.000000, 79.306605
1547.000000, 79.245817
1548.000000, 79.275877
1549.000000, 79.384108
1550.000000, 79.507566
1551.000000, 79.521617
1552.000000, 79.479020
1553.000000, 79.463843
1554.000000, 79.499532
1555.000000, 79.450258
1556.000000, 79.445662
1557.000000, 79.515410
1558.000000, 79.599930
1559.000000, 79.594280
1560.000000, 79.687386
1561.000000, 79.781607
1562.000000, 79.782077
1563.000000, 79.803875
1564.000000, 79.864602
1565.000000, 79.917795
1566.000000, 79.885776
1567.000000, 79.844488
1568.000000, 79.724067
1569.000000, 79.661654
1570.000000, 79.785185
1571.000000, 79.908001
1572.000000, 79.846464
1573.000000, 79.804515
1574.000000, 79.790161
1575.000000, 79.802899
1576.000000, 79.853760
1577.000000, 79.858924
1578.000000, 79.817240
1579.000000, 79.745926
1580.000000, 79.753025
1581.000000, 79.781601
1582.000000, 79.774315
1583.000000, 79.695615
1584.000000, 79.646871
1585.000000, 79.808218
1586.000000, 79.973603
1587.000000, 80.026105
1588.000000, 80.007360
1589.000000, 79.925483
1590.000000, 79.883843
1591.000000, 80.022366
1592.000000, 80.103849
1593.000000, 80.205737
1594.000000, 80.246909
1595.000000, 80.174657
1596.000000, 80.002059
1597.000000, 79.983296
1598.000000, 80.100243
1599.000000, 80.207068
1600.000000, 80.289174
1601.000000, 80.361881
1602.000000, 80.480484
1603.000000, 80.541247
1604.000000, 80.376382
1605.000000, 80.096200
1606.000000, 80.009440
1607.000000, 80.010321
1608.000000, 79.969273
1609.000000, 79.935643
1610.000000, 79.946700
1611.000000, 79.992039
1612.000000, 80.014325
1613.000000, 80.043047
1614.000000, 80.051530
1615.000000, 80.045068
1616.000000, 79.996707
1617.000000, 79.973768
1618.000000, 79.947953
1619.000000, 79.948063
1620.000000, 79.999838
1621.000000, 80.034316
1622.000000, 80.092071
1623.000000, 80.221707
1624.000000, 80.287218
1625.000000, 80.151669
1626.000000, 80.087508
1627.000000, 80.199867
1628.000000, 80.313583
1629.000000, 80.378679
1630.000000, 80.439329
1631.000000, 80.534461
1632.000000, 80.594066
1633.000000, 80.495598
1634.000000, 80.328484
1635.000000, 80.325852
1636.000000, 80.458952
1637.000000, 80.545328
1638.000000, 80.568403
1639.000000, 80.404257
1640.000000, 80.102780
1641.000000, 79.808462
1642.000000, 79.727704
1643.000000, 79.961381
1644.000000, 80.329260
1645.000000, 80.569416
1646.000000, 80.603155
1647.000000, 80.437489
1648.000000, 80.186026
1649.000000, 80.071116
1650.000000, 80.025315
1651.000000, 79.992127
1652.000000, 80.156187
1653.000000, 80.451515
1654.000000, 80.619247
1655.000000, 80.593589
1656.000000, 80.381845
1657.000000, 80.113845
1658.000000, 79.988914
1659.000000, 79.975397
1660.000000, 80.054983
1661.000000, 80.114810
1662.000000, 80.069538
1663.000000, 79.998198
1664.000000, 79.914713
1665.000000, 79.876756
1666.000000, 80.002974
1667.000000, 80.226784
1668.000000, 80.340537
1669.000000, 80.389521
1670.000000, 80.496851
1671.000000, 80.464118
1672.000000, 80.292870
1673.000000, 80.093114
1674.000000, 79.922794
1675.000000, 79.943598
1676.000000, 80.075488
1677.000000, 80.228488
1678.000000, 80.447184
1679.000000, 80.702612
1680.000000, 80.908599
1681.000000, 80.916314
1682.000000, 80.756317
1683.000000, 80.596735
1684.000000, 80.503109
1685.000000, 80.444317
1686.000000, 80.375541
1687.000000, 80.267184
1688.000000, 80.115927
1689.000000, 79.981240
1690.000000, 80.079730
1691.000000, 80.192369
1692.000000, 80.212718
1693.000000, 80.253234
1694.000000, 80.281425
1695.000000, 80.293860
1696.000000, 80.291697
1697.000000, 80.222817
1698.000000, 80.023196
1699.000000, 79.791848
1700.000000, 79.799350
1701.000000, 80.077347
1702.000000, 80.261692
1703.000000, 80.320375
1704.000000, 80.303119
1705.000000, 80.251841
1706.000000, 80.260687
1707.000000, 80.300228
1708.000000, 80.261981
1709.000000, 80.042489
1710.000000, 79.918154
1711.000000, 79.920860
1712.000000, 79.900736
1713.000000, 79.883902
1714.000000, 80.078060
1715.000000, 80.389563
1716.000000, 80.664563
1717.000000, 80.730087
1718.000000, 80.696913
1719.000000, 80.580226
1720.000000, 80.313434
1721.000000, 80.121576
1722.000000, 80.031392
1723.000000, 80.014808
1724.000000, 79.968565
1725.000000, 79.854872
1726.000000, 79.761397
1727.000000, 79.803144
1728.000000, 79.950429
1729.000000, 80.163117
1730.000000, 80.442979
1731.000000, 80.767447
1732.000000, 81.009324
1733.000000, 80.898897
1734.000000, 80.565824
1735.000000, 80.241111
1736.000000, 80.160982
1737.000000, 80.151824
1738.000000, 80.105566
1739.000000, 80.043309
1740.000000, 80.030108
1741.000000, 79.975840
1742.000000, 79.828881
1743.000000, 79.771415
1744.000000, 79.929292
1745.000000, 80.106970
1746.000000, 80.196544
1747.000000, 80.254398
1748.000000, 80.248941
1749.000000, 80.186132
1750.000000, 80.142825
1751.000000, 80.097462
1752.000000, 80.048453
1753.000000, 80.060757
1754.000000, 80.144127
1755.000000, 80.168074
1756.000000, 80.118123
1757.000000, 80.090012
1758.000000, 80.026581
1759.000000, 79.916686
1760.000000, 79.893881
1761.000000, 80.069653
1762.000000, 80.264536
1763.000000, 80.318955
1764.000000, 80.333224
1765.000000, 80.348386
1766.000000, 80.310028
1767.000000, 80.314959
1768.000000, 80.331320
1769.000000, 80.387270
1770.000000, 80.425376
1771.000000, 80.365738
1772.000000, 80.267124
1773.000000, 80.118635
1774.000000, 79.941786
1775.000000, 79.979231
1776.000000, 80.255242
1777.000000, 80.595904
1778.000000, 80.791860
1779.000000, 80.821440
1780.000000, 80.752450
1781.000000, 80.749974
1782.000000, 80.888106
1783.000000, 81.034607
1784.000000, 80.943614
1785.000000, 80.734471
1786.000000, 80.564844
1787.000000, 80.414574
1788.000000, 80.156493
1789.000000, 79.972418
1790.000000, 80.079995
1791.000000, 80.287616
1792.000000, 80.487727
1793.000000, 80.795499
1794.000000, 80.886102
1795.000000, 80.804336
1796.000000, 80.743673
1797.000000, 80.885862
1798.000000, 81.075125
1799.000000, 81.158118
1800.000000, 81.157474
1801.000000, 80.975261
1802.000000, 80.805409
1803.000000, 80.844131
1804.000000, 80.894944
1805.000000, 80.862068
1806.000000, 80.759449
1807.000000, 80.710564
1808.000000, 80.619836
1809.000000, 80.376233
1810.000000, 80.185632
1811.000000, 80.362373
1812.000000, 80.511885
1813.000000, 80.737667
1814.000000, 80.982599
1815.000000, 81.271032
1816.000000, 81.254349
1817.000000, 80.938234
1818.000000, 80.476354
1819.000000, 80.002205
1820.000000, 80.150592
1821.000000, 80.564135
1822.000000, 80.862395
1823.000000, 81.079437
1824.000000, 81.101138
1825.000000, 81.124413
1826.000000, 81.151938
1827.000000, 81.100933
1828.000000, 81.113691
1829.000000, 81.097190
1830.000000, 81.081633
1831.000000, 81.338802
1832.000000, 81.168898
1833.000000, 80.729140
1834.000000, 80.148767
1835.000000, 80.093462
1836.000000, 80.579890
1837.000000, 81.080403
1838.000000, 81.147281
1839.000000, 80.669032
1840.000000, 80.274334
1841.000000, 80.384477
1842.000000, 80.884573
1843.000000, 81.413419
1844.000000, 81.308376
1845.000000, 80.455864
1846.000000, 80.002735
1847.000000, 80.592128
1848.000000, 81.434855
1849.000000, 81.636362
1850.000000, 81.129930
1851.000000, 80.909833
1852.000000, 80.899328
1853.000000, 81.174404
1854.000000, 81.209695
1855.000000, 80.999209
1856.000000, 80.949340
1857.000000, 81.234089
1858.000000, 81.472480
1859.000000, 81.383449
1860.000000, 81.210086
1861.000000, 80.791135
1862.000000, 80.342271
1863.000000, 80.473236
1864.000000, 81.330294
1865.000000, 82.047071
1866.000000, 81.617894
1867.000000, 80.809619
1868.000000, 80.395996
1869.000000, 80.310483
1870.000000, 80.471593
1871.000000, 80.682163
1872.000000, 80.721459
1873.000000, 80.753500
1874.000000, 80.711758
1875.000000, 80.718929
1876.000000, 81.010076
1877.000000, 81.376012
1878.000000, 81.740194
1879.000000, 81.627868
1880.000000, 81.514856
1881.000000, 81.330661
1882.000000, 81.065261
1883.000000, 80.920775
1884.000000, 80.925817
1885.000000, 81.075905
1886.000000, 81.302673
1887.000000, 81.365975
1888.000000, 81.534693
1889.000000, 81.461327
1890.000000, 81.243976
1891.000000, 81.156059
1892.000000, 81.313993
1893.000000, 81.720133
1894.000000, 82.016218
1895.000000, 81.968676
1896.000000, 81.441615
1897.000000, 80.579258
1898.000000, 80.054683
1899.000000, 79.995443
1900.000000, 80.603216
1901.000000, 81.157081
1902.000000, 81.272450
1903.000000, 80.949048
1904.000000, 80.620752
1905.000000, 80.523533
1906.000000, 80.779125
1907.000000, 81.063646
1908.000000, 81.405288
1909.000000, 81.687357
1910.000000, 81.594277
1911.000000, 81.161642
1912.000000, 80.739145
1913.000000, 80.563442
1914.000000, 80.679086
1915.000000, 81.088957
1916.000000, 81.642116
1917.000000, 81.784499
1918.000000, 81.509733
1919.000000, 80.920367
1920.000000, 80.574097
1921.000000, 80.556146
1922.000000, 80.701065
1923.000000, 80.922832
1924.000000, 81.041766
1925.000000, 80.904926
1926.000000, 80.768629
1927.000000, 80.580174
1928.000000, 80.353482
1929.000000, 80.406052
1930.000000, 80.745906
1931.000000, 81.030750
1932.000000, 81.118022
1933.000000, 80.901734
1934.000000, 80.713443
1935.000000, 80.647685
1936.000000, 80.877748
1937.000000, 81.168273
1938.000000, 81.425082
1939.000000, 81.724898
1940.000000, 81.812957
1941.000000, 81.863587
1942.000000, 81.935614
1943.000000, 81.877053
1944.000000, 81.778139
1945.000000, 81.640632
1946.000000, 81.486887
1947.000000, 81.548518
1948.000000, 81.644883
1949.000000, 81.673316
1950.000000, 81.606302
1951.000000, 81.614135
1952.000000, 81.617503
1953.000000, 81.547971
1954.000000, 81.616022
1955.000000, 81.776001
1956.000000, 81.861582
1957.000000, 81.803188
1958.000000, 81.589644
1959.000000, 81.706043
1960.000000, 81.795090
1961.000000, 81.759430
1962.000000, 81.834303
1963.000000, 81.821150
1964.000000, 81.741546
1965.000000, 81.952141
1966.000000, 82.148361
1967.000000, 82.276768
1968.000000, 82.259279
1969.000000, 82.119050
1970.000000, 81.785409
1971.000000, 81.754699
1972.000000, 82.037054
1973.000000, 82.188464
1974.000000, 82.244102
1975.000000, 82.362754
1976.000000, 82.553936
1977.000000, 82.787185
1978.000000, 82.757818
1979.000000, 82.654149
1980.000000, 82.586986
1981.000000, 82.391376
1982.000000, 82.242226
1983.000000, 82.117847
1984.000000, 81.792352
1985.000000, 81.449827
1986.000000, 81.252984
1987.000000, 81.207114
1988.000000, 81.295276
1989.000000, 81.567100
1990.000000, 81.723096
1991.000000, 81.679403
1992.000000, 81.618213
1993.000000, 81.519170
1994.000000, 80.997243
1995.000000, 80.997243
1996.000000, 80.997243
1997.000000, 80.997243
1998.000000, 80.997243
1999.000000, 80.997243
2000.065834, 81.044512
2009.942668, 81.185257
2020.098566, 81.380227
2029.969298, 81.575718
2039.837000, 81.792432
2049.983460, 81.971686
2059.844971, 82.195984
2069.985031, 82.272657
2079.840289, 82.360171
2089.973887, 82.511505
2099.822832, 82.568150
2109.949906, 82.563978
2119.792477, 82.658654
2129.912964, 82.728802
2140.030088, 82.770755
2149.862941, 82.869692
2159.973384, 82.939913
2169.799712, 83.058448
2179.903413, 83.166039
2190.003671, 83.212329
2199.820052, 83.233056
2209.913475, 83.365097
2219.723179, 83.417039
2229.809704, 83.494759
2239.892708, 83.559251
2249.692237, 83.648054
2259.768250, 83.696177
2269.840694, 83.727828
2279.909553, 83.767691
2289.695271, 83.814674
2299.757015, 83.858936
2309.815127, 83.870587
2319.869592, 83.954133
2329.641254, 83.971148
2339.688478, 84.017927
2349.732008, 84.059318
2359.771828, 84.033027
2369.807920, 83.921529
2379.840271, 83.971025
2389.590342, 83.974323
2399.615266, 83.902434
2409.636400, 83.920001
2419.653730, 84.047061
2429.667238, 83.986665
2439.676909, 83.992404
2449.682728, 83.986545
2459.684679, 83.921829
2469.682745, 83.832997
2479.676911, 83.923826
2489.667162, 83.905744
2499.653481, 83.892804
2509.635853, 83.962531
2519.614261, 84.148430
2529.588691, 84.077338
2539.559127, 83.967197
2549.525552, 83.987267
2559.487951, 83.856773
2569.722871, 83.699435
2579.677058, 83.688710
2589.627171, 83.679580
2599.573195, 83.718405
2609.515113, 83.826567
2619.452911, 83.859795
2629.662448, 83.604680
2639.591842, 83.456209
2649.517067, 82.965799
2659.438109, 82.215343
2669.630358, 80.675903
2679.542867, 78.160658
2689.451145, 74.558503
2699.630227, 70.028698
2709.529877, 64.853368
2719.425248, 59.458072
2729.591015, 54.681297
2739.477662, 50.728528
2749.359982, 47.592610
2759.512287, 45.163923
2769.385788, 43.562793
2779.528995, 42.635370
2789.393611, 41.903890
2799.527654, 41.497534
2809.383323, 41.331175
2819.508136, 41.333382
2829.354792, 41.419950
2839.470310, 41.739095
2849.307890, 42.067772
2859.414046, 42.387646
2869.515434, 42.849787
2879.339216, 43.296208
2889.431143, 43.688755
2899.245690, 44.101262
2909.328092, 44.622966
2919.405640, 45.186679
2929.206149, 45.743413
2939.274073, 46.309983
2949.337095, 46.959366
2959.395197, 47.497629
2969.176720, 47.953149
2979.225066, 48.347969
2989.268442, 48.736549
2999.306833, 49.189855
3009.340220, 49.676259
3019.368587, 50.173006
3029.391918, 50.735825
3039.139497, 51.300008
3049.152842, 51.851857
3059.161100, 52.380337
3069.164256, 52.873099
3079.162292, 53.392620
3089.155191, 53.835976
3099.142938, 54.332174
3109.125515, 54.859031
3119.102905, 55.403544
3129.075093, 55.979026
3139.311366, 56.560059
3149.272956, 56.947700
3159.229293, 57.463073
3169.180360, 57.820452
3179.126141, 58.173426
3189.066618, 58.568498
3199.270220, 58.992173
3209.199897, 59.314287
3219.124221, 59.740298
3229.043176, 59.902409
3239.224603, 60.040579
3249.132622, 60.176076
3259.035221, 60.094567
3269.199799, 59.918069
3279.091361, 59.802730
3288.977454, 59.473256
3299.125027, 59.074118
3308.999981, 58.668474
3319.136081, 58.090142
3328.999829, 57.301720
3339.124385, 56.431230
3348.976861, 55.410385
3359.089804, 54.150637
3368.930939, 52.902097
3379.032200, 51.404329
3389.127517, 49.889494
3398.951437, 48.163057
3409.034967, 46.517880
3419.112499, 44.821255
3428.919052, 43.247767
3438.984693, 41.500687
3449.044284, 39.872456
3458.833318, 38.174173
3468.880914, 36.415181
3478.922407, 34.749136
3488.957779, 33.252932
3498.987012, 31.734087
3509.010089, 30.416026
3519.026992, 29.208708
3529.037703, 28.033272
3538.779008, 26.821108
3548.777448, 25.881748
3558.769643, 24.884946
3568.755577, 24.045471
3578.997769, 23.214052
3588.970961, 22.573207
3598.937838, 22.056128
3608.898383, 21.793046
3618.852578, 21.628609
3628.800407, 21.702205
3638.741850, 22.021498
3648.938253, 22.355258
3658.866705, 22.974827
3668.788719, 23.751992
3678.704279, 24.709275
3688.874043, 25.759545
3698.776469, 26.840714
3708.672387, 27.837849
3718.821938, 29.001864
3728.704616, 30.121590
3738.840542, 31.254791
3748.709907, 32.299588
3758.832135, 33.457177
3768.688117, 34.122401
3778.796573, 34.883166
3788.639101, 35.533991
3798.733711, 35.984712
3808.821282, 36.161056
3818.643407, 36.421166
3828.717023, 36.273379
3838.783543, 35.936829
3848.585104, 35.477095
3858.637559, 35.010326
3868.682864, 34.472065
3878.720999, 33.871855
3888.751945, 32.970635
3898.518755, 32.407400
3908.535455, 31.733151
3918.544910, 31.011967
3928.547104, 30.261501
3938.542016, 29.747193
3948.529630, 29.200614
3958.509925, 28.591436
3968.482884, 28.051560
3978.703920, 27.817056
3988.661962, 27.747789
3998.612612, 27.629759
4008.555852, 27.471451
4018.491662, 27.569285
4028.674500, 27.609164
4038.595205, 27.709327
4048.508426, 27.781035
4058.414143, 28.282435
4068.566040, 28.479312
4078.456503, 28.758726
4088.592715, 28.882805
4098.467848, 29.139808
4108.588299, 29.291858
4118.448027, 29.281666
4128.552639, 29.315605
4138.396887, 29.462773
4148.485584, 29.416602
4158.566193, 29.112610
4168.386981, 29.377905
4178.451560, 28.502652
4188.507992, 28.100140
4198.305151, 27.928819
4208.345437, 27.477893
4218.377519, 26.403309
4228.401377, 26.746746
4238.416991, 26.409063
4248.424343, 25.082593
4258.423411, 24.282073
4268.414178, 23.661717
4278.396623, 22.851279
4288.370728, 22.135335
4298.336471, 22.134818
4308.293836, 21.872067
4318.242800, 21.659976
4328.431752, 20.948747
4338.363649, 20.130706
4348.287088, 19.284565
4358.202050, 18.293174
4368.356068, 17.482785
4378.253805, 16.785937
4388.390126, 16.183583
4398.270558, 15.478223
4408.389101, 15.025200
4418.252149, 14.250114
4428.352834, 13.639026
4438.198419, 12.942682
4448.281165, 12.482313
4458.354799, 11.819878
4468.173935, 11.306591
4478.229508, 10.537150
4488.275909, 9.886408
4498.313117, 9.277753
4508.096635, 8.772631
4518.115621, 8.190621
4528.125352, 7.925749
4538.125809, 7.518223
4548.116970, 7.083077
4558.098816, 6.660589
4568.071325, 6.355020
4578.277365, 5.910762
4588.230912, 5.614219
4598.175061, 5.218842
4608.109792, 4.844833
4618.035085, 4.700210
4628.192649, 4.519295
4638.098772, 4.348917
4647.995395, 4.180913
4658.123528, 4.045527
4668.000857, 3.912954
4678.109183, 3.802718
4687.967136, 3.710203
4698.055570, 3.627401
4708.133906, 3.525402
4717.962521, 3.433174
4728.020838, 3.343723
4738.068993, 3.243588
4748.106964, 3.148970
4758.134730, 3.074071
4767.913874, 2.999603
4777.921408, 2.927257
4787.918673, 2.866463
4797.905646, 2.805727
4807.882307, 2.745058
4818.085802, 2.680734
4828.041526, 2.618119
4837.986874, 2.556155
4847.921823, 2.498560
4857.846351, 2.441446
4867.996361, 2.389660
4877.899737, 2.341025
4888.028045, 2.294664
4897.910179, 2.249711
4908.016697, 2.206123
4917.877504, 2.165303
4927.962141, 2.124189
4937.801534, 2.080788
4947.864203, 2.035389
4957.915724, 1.991784
4967.956075, 1.946834
4977.985234, 1.905347
4987.770330, 1.866258
4997.777298, 1.831171
5007.776688, 1.796307
5017.595804, 1.765821
5028.169082, 1.734758
5037.986050, 1.704721
5047.801980, 1.672559
5057.616872, 1.641592
5068.185590, 1.610214
5077.998316, 1.580010
5087.809996, 1.547774
5097.620628, 1.519376
5107.430211, 1.489687
5117.993201, 1.461746
5127.800597, 1.434326
5137.606938, 1.409267
5147.412220, 1.384237
5157.970569, 1.362127
5167.773648, 1.339695
5177.575662, 1.319604
5187.376611, 1.303203
5197.930283, 1.288648
5207.729011, 1.273181
5217.526666, 1.259977
5227.323247, 1.245515
5237.872207, 1.229577
5247.666549, 1.213368
5257.459812, 1.197290
5268.005191, 1.179918
5277.796202, 1.162941
5287.586127, 1.146988
5297.374963, 1.132252
5307.915566, 1.117647
5317.702134, 1.102201
5327.487607, 1.087520
5337.271982, 1.072918
5347.807773, 1.058740
5357.589864, 1.045926
5367.370852, 1.032995
5377.902987, 1.021400
5387.681677, 1.010718
5397.459258, 1.000531
5407.235727, 0.989641
5417.762987, 0.979886
5427.537141, 0.969878
5437.310177, 0.960590
5447.833734, 0.951742
5457.604442, 0.943131
5467.374028, 0.933762
5477.142487, 0.923524
5487.661104, 0.913252
5497.427219, 0.903483
5507.192201, 0.894961
5517.707068, 0.886773
5527.469693, 0.877874
5537.231179, 0.869060
5547.742274, 0.860283
5557.501390, 0.854036
5567.259362, 0.847973
5577.766665, 0.841325
5587.522253, 0.834914
5597.276691, 0.828520
5607.780182, 0.820664
5617.532223, 0.812858
5627.283108, 0.805583
5637.032835, 0.798296
5647.531242, 0.791303
5657.278555, 0.784882
5667.024703, 0.780852
5677.519250, 0.779909
5687.262972, 0.778121
5697.005523, 0.774110
5707.496189, 0.769815
5717.236302, 0.764242
5726.975237, 0.758679
5737.462002, 0.754327
5747.198485, 0.748681
5757.682605, 0.742602
5767.416629, 0.737665
5777.149464, 0.732427
5787.629649, 0.728175
5797.360012, 0.723306
5807.089180, 0.719891
5817.565409, 0.716429
5827.292092, 0.711680
5837.017575, 0.707277
5847.489828, 0.702686
5857.212813, 0.698527
5866.934591, 0.693167
5877.402847, 0.688414
5887.122114, 0.683455
5897.587661, 0.680120
5907.304408, 0.676643
5917.019938, 0.672022
5927.481454, 0.667325
5937.194452, 0.664163
5946.906226, 0.663198
5957.363691, 0.661555
5967.072921, 0.659937
5977.527640, 0.657090
5987.234315, 0.652509
5996.939757, 0.648592
6007.390390, 0.645915
6017.093265, 0.645063
6026.794901, 0.643593
6037.241429, 0.639344
6046.940485, 0.635304
6057.384230, 0.631769
6067.080698, 0.629298
6076.775917, 0.626170
6087.215522, 0.622109
6096.908139, 0.618542
6107.344938, 0.615810
6117.034946, 0.613561
6126.723694, 0.611597
6137.156319, 0.608625
6146.842444, 0.605692
6157.272241, 0.601886
6166.955735, 0.598990
6177.382693, 0.595920
6187.063548, 0.593365
6196.743128, 0.591567
6207.165865, 0.589531
6216.842793, 0.587614
6227.262668, 0.586148
6236.936935, 0.584977
6246.609918, 0.583805
6257.025537, 0.582932
6266.695846, 0.580989
6277.108582, 0.578387
6286.776208, 0.575148
6297.186050, 0.572711
6306.850986, 0.569998
6317.257926, 0.566888
6326.920162, 0.563760
6336.581095, 0.560657
6346.983717, 0.557850
6356.641938, 0.555239
6367.041635, 0.553635
6376.697135, 0.554238
6387.093897, 0.555069
6396.746668, 0.555759
6407.140486, 0.555852
6416.790518, 0.554574
6427.181383, 0.551858
6436.828669, 0.550084
6446.474630, 0.548115
6456.861103, 0.545991
6466.504304, 0.543587
6476.887800, 0.541097
6486.528234, 0.539045
6496.908745, 0.536497
6506.546402, 0.533979
6516.923919, 0.533603
6526.558791, 0.533292
6536.933304, 0.532272
6546.565382, 0.531812
6556.936882, 0.531234
6566.566159, 0.528828
6576.934637, 0.527122
6586.561102, 0.526226
6596.926549, 0.523780
6606.550195, 0.521361
6616.912601, 0.518856
6626.533420, 0.516404
6636.892776, 0.514696
6646.510758, 0.513063
6656.867055, 0.510757
6666.482193, 0.508575
6676.835422, 0.506872
6686.447706, 0.506378
6696.797857, 0.505386
6706.407280, 0.505264
6716.754344, 0.504744
6726.360896, 0.503238
6736.704865, 0.500987
6746.308538, 0.498972
6756.649402, 0.496843
6766.250188, 0.495151
6776.587937, 0.493941
6786.924068, 0.491999
6796.520453, 0.490322
6806.853456, 0.488796
6816.446931, 0.487699
6826.776797, 0.487817
6836.367355, 0.487837
6846.694074, 0.487675
6856.281707, 0.487513
6866.605270, 0.487590
6876.189968, 0.486886
6886.510366, 0.485800
6896.829120, 0.483763
6906.409345, 0.482094
6916.724921, 0.481198
6926.302190, 0.479824
6936.614577, 0.478485
6946.188882, 0.476675
6956.498072, 0.474732
6966.805601, 0.473195
6976.375388, 0.471435
6986.679706, 0.469825
6996.246507, 0.468546
7006.547605, 0.467854
7016.111412, 0.466524
7026.409280, 0.465338
7036.705470, 0.463861
7046.264714, 0.462344
7056.557661, 0.460746
7066.113889, 0.459843
7076.403584, 0.459115
7086.691589, 0.457976
7096.243221, 0.456424
7106.527959, 0.454708
7116.076554, 0.453654
7126.358018, 0.452662
7136.637779, 0.451652
7146.181746, 0.450054
7156.458218, 0.448920
7165.999126, 0.447505
7176.272300, 0.446054
7186.543760, 0.444431
7196.080008, 0.442882
7206.348156, 0.441224
7216.614582, 0.440089
7226.146150, 0.438924
7236.409251, 0.438123
7245.937725, 0.437177
7256.197491, 0.436356
7266.455524, 0.435143
7275.979286, 0.433816
7286.233970, 0.432329
7296.486914, 0.431599
7306.005944, 0.431007
7316.255525, 0.430766
7326.503358, 0.430186
7336.017637, 0.429415
7346.262094, 0.428553
7356.504797, 0.427005
7366.014304, 0.425504
7376.253616, 0.424756
7386.491167, 0.423993
7395.995884, 0.422618
7406.230030, 0.421636
7416.462408, 0.420558
7425.962315, 0.420167
7436.191274, 0.419791
7446.418458, 0.419194
7455.913536, 0.418114
7466.137287, 0.417087
7476.359256, 0.416788
7485.849485, 0.416771
7496.068008, 0.416554
7506.284741, 0.415807
7515.770101, 0.414861
7525.983375, 0.413573
7536.194850, 0.412946
7545.675324, 0.411856
7555.883326, 0.410470
7566.089524, 0.409175
7576.293916, 0.408061
7585.767802, 0.406852
7595.968701, 0.406108
7606.167786, 0.405599
7615.636739, 0.405031
7625.832319, 0.404818
7636.026078, 0.404200
7646.218013, 0.402895
7655.680318, 0.401935
7665.868729, 0.401003
7676.055310, 0.399779
7686.240057, 0.398486
7695.695679, 0.397697
7705.876884, 0.396577
7716.056248, 0.395563
7726.233770, 0.394613
7735.682674, 0.393469
7745.856636, 0.392724
7756.028747, 0.392293
7766.199006, 0.392108
7775.641157, 0.391623
7785.807837, 0.390595
7795.972657, 0.389574
7806.135616, 0.388496
7815.570980, 0.387489
7825.730341, 0.386487
7835.887833, 0.385783
7846.043454, 0.385084
7855.471995, 0.384047
7865.624000, 0.382906
7875.774127, 0.381756
7885.922372, 0.380774
7896.068734, 0.380237
7905.488668, 0.379404
7915.631391, 0.378624
7925.772224, 0.377980
7935.911164, 0.376880
7946.048209, 0.376250
7955.459480, 0.375561
7965.592863, 0.375019
7975.724343, 0.374709
7985.853919, 0.374083
7995.981587, 0.373333
8005.384141, 0.372659
8015.508125, 0.372161
8025.630194, 0.371683
8035.750346, 0.371460
8045.868580, 0.371036
8055.984892, 0.370533
8065.376887, 0.369689
8075.489487, 0.369022
8085.600158, 0.368309
8095.708897, 0.367516
8105.815704, 0.366542
8115.920574, 0.365688
8125.301933, 0.364702
8135.403063, 0.363876
8145.502251, 0.362929
8155.599493, 0.362357
8165.694787, 0.361829
8175.788131, 0.361249
8185.879523, 0.360746
8195.248351, 0.359940
8205.335970, 0.359056
8215.421630, 0.358585
8225.505327, 0.358361
8235.587061, 0.358243
8245.666827, 0.357950
8255.744624, 0.357539
8265.820450, 0.356714
8275.174806, 0.356000
8285.246822, 0.355051
8295.316860, 0.354195
8305.384917, 0.353704
8315.450990, 0.353342
8325.515077, 0.352788
8335.577176, 0.351888
8345.637284, 0.350952
8355.695399, 0.350484
8365.751519, 0.350223
8375.087555, 0.349668
8385.139819, 0.349076
8395.190081, 0.348462
8405.238338, 0.347617
8415.284587, 0.346836
8425.328827, 0.346029
8435.371055, 0.345173
8445.411268, 0.344351
8455.449464, 0.343477
8465.485641, 0.343115
8475.519796, 0.342638
8485.551927, 0.342472
8495.582031, 0.342736
8505.610107, 0.342738
8515.636151, 0.342504
8525.660162, 0.342735
8535.682136, 0.342729
8544.986430, 0.342377
8555.004471, 0.342163
8565.020468, 0.341596
8575.034421, 0.340759
8585.046325, 0.340062
8595.056179, 0.339269
8605.063981, 0.338465
8615.069727, 0.337792
8625.073416, 0.337282
8635.075045, 0.336616
8645.074612, 0.335803
8655.072114, 0.335122
8665.067549, 0.334716
8675.060915, 0.334123
8685.052209, 0.333758
8695.041429, 0.333186
8705.028573, 0.332450
8715.013637, 0.332049
8724.996620, 0.331772
8734.977519, 0.331691
8744.956333, 0.331221
8754.933058, 0.330606
8764.907692, 0.329991
8774.880232, 0.329327
8784.850677, 0.328920
8794.819025, 0.328515
8804.785271, 0.328155
8815.461059, 0.327531
8825.422948, 0.326990
8835.382728, 0.326596
8845.340399, 0.326103
8855.295957, 0.325369
8865.249401, 0.324925
8875.200727, 0.324513
8885.149933, 0.323905
8895.097018, 0.323279
8905.041978, 0.322687
8914.984812, 0.321963
8924.925517, 0.321460
8934.864090, 0.320903
8944.800529, 0.320311
8954.734832, 0.319611
8965.376355, 0.319166
8975.306225, 0.318804
8985.233952, 0.318405
8995.159534, 0.317751
9005.082967, 0.317259
9015.004249, 0.316858
9024.923378, 0.316259
9034.840353, 0.315662
9044.755169, 0.314969
9054.667825, 0.314711
9065.286129, 0.314695
9075.194303, 0.315094
9085.100310, 0.315603
9095.004147, 0.315975
9104.905813, 0.315858
9114.805303, 0.315948
9124.702617, 0.315982
9134.597752, 0.315868
9145.197262, 0.315702
9155.087875, 0.315887
9164.976302, 0.315748
9174.862540, 0.315513
9184.746587, 0.315234
9194.628441, 0.314904
9204.508098, 0.314369
9215.091006, 0.313896
9224.966108, 0.313650
9234.839006, 0.313449
9244.709699, 0.313016
9254.578185, 0.312544
9265.149109, 0.312029
9275.013013, 0.311957
9284.874702, 0.311912
9294.734174, 0.311838
9304.591426, 0.311739
9314.446456, 0.311567
9325.002949, 0.311410
9334.853368, 0.311272
9344.701558, 0.311129
9354.547517, 0.310772
9364.391241, 0.310326
9374.935607, 0.309695
9384.774696, 0.309370
9394.611544, 0.309084
9404.446148, 0.308867
9414.980732, 0.308518
9424.810682, 0.308149
9434.638380, 0.307567
9444.463825, 0.306983
9454.988585, 0.306519
9464.809356, 0.306197
9474.627866, 0.306056
9484.444114, 0.305917
9494.959008, 0.305391
9504.770561, 0.305043
9514.579844, 0.304659
9524.386855, 0.304499
9534.891842, 0.304734
9544.694139, 0.304866
9554.494156, 0.304863
9564.291891, 0.304849
9574.786929, 0.304862
9584.579930, 0.304448
9594.370643, 0.304027
9604.858149, 0.304048
9614.644112, 0.304070
9624.427779, 0.303898
9634.209147, 0.303867
9644.686632, 0.303593
9654.463232, 0.303035
9664.237526, 0.302807
9674.707423, 0.302461
9684.476934, 0.302102
9694.244132, 0.301552
9704.706417, 0.300979
9714.468817, 0.300950
9724.228897, 0.300749
9734.683548, 0.300315
9744.438814, 0.299846
9754.191753, 0.299489
9764.638746, 0.299508
9774.386857, 0.299105
9784.132634, 0.298586
9794.571945, 0.298020
9804.312879, 0.297913
9814.746996, 0.297942
9824.483078, 0.297778
9834.216813, 0.297739
9844.643209, 0.297706
9854.372076, 0.297329
9864.098590, 0.296947
9874.517241, 0.296393
9884.238873, 0.295996
9894.652288, 0.295486
9904.369027, 0.294982
9914.083402, 0.294690
9924.489032, 0.294360
9934.198499, 0.294413
9944.598867, 0.294624
9954.303417, 0.294765
9964.005590, 0.295003
9974.398135, 0.294925
9984.095376, 0.294502
9994.482631, 0.294251
10004.174930, 0.293824
10014.556890, 0.293672
10024.244230, 0.293182
10033.929190, 0.292850
10044.303260, 0.292837
10053.983250, 0.292518
10064.352000, 0.292487
10074.027010, 0.292277
10084.390430, 0.291765
10094.060450, 0.291284
10104.418520, 0.291095
10114.083550, 0.290959
10124.436250, 0.290535
10134.096280, 0.290022
10144.443620, 0.289512
10154.098620, 0.289226
10164.440580, 0.288992
10174.090560, 0.288699
10184.427130, 0.288331
10194.072080, 0.287929
10204.403250, 0.287508
10214.043150, 0.287186
10224.368910, 0.286824
10234.003750, 0.286671
10244.324090, 0.286536
10253.953860, 0.286514
10264.268770, 0.286487
10273.893470, 0.286639
10284.202930, 0.286954
10293.822550, 0.287213
10304.126560, 0.287059
10313.741080, 0.286910
10324.039630, 0.286543
10334.335340, 0.286673
10343.942110, 0.286773
10354.232340, 0.286488
10363.834000, 0.286154
10374.118740, 0.285935
10383.715270, 0.285599
10393.994510, 0.285122
10404.270900, 0.284725
10413.859620, 0.284291
10424.130500, 0.283983
10433.714070, 0.283546
10443.979410, 0.283188
10454.241900, 0.282777
10463.817630, 0.282466
10474.074570, 0.282609
10483.645120, 0.282545
10493.896500, 0.282526
10504.145010, 0.282422
10513.707690, 0.282106
10523.950630, 0.281747
10534.190680, 0.281288
10543.745450, 0.280838
10553.979920, 0.280623
10564.211490, 0.280567
10573.758350, 0.280262
10583.984320, 0.279961
10593.525940, 0.279641
10603.746300, 0.279297
10613.963750, 0.278855
10624.178290, 0.278495
10633.709240, 0.278034
10643.918150, 0.277684
10654.124140, 0.277379
10663.647090, 0.277069
10673.847430, 0.276648
10684.044850, 0.276239
10693.559790, 0.275868
10703.751540, 0.275663
10713.940350, 0.275282
10723.447260, 0.274864
10733.630400, 0.274475
10743.810590, 0.274059
10753.987830, 0.273824
10763.483930, 0.273570
10773.655480, 0.273495
10783.824070, 0.273103
10793.989700, 0.272812
10803.474950, 0.272651
10813.634860, 0.272361
10823.791800, 0.272204
10833.945780, 0.271895
10843.420140, 0.271728
10853.568380, 0.271456
10863.713630, 0.271223
10873.855910, 0.271070
10883.319350, 0.270730
10893.455860, 0.270418
10903.589380, 0.270125
10913.719920, 0.269853
10923.847460, 0.269911
10933.297140, 0.269761
10943.418890, 0.269633
10953.537640, 0.269565
10963.653390, 0.269523
10973.766130, 0.269398
10983.875860, 0.269438
10993.308900, 0.269655
11003.412810, 0.269853
11013.513700, 0.270056
11023.611570, 0.270178
11033.706420, 0.270232
11043.798250, 0.270160
11053.214560, 0.269959
11063.300530, 0.269544
11073.383460, 0.269175
11083.463370, 0.268804
11093.540230, 0.268749
11103.614050, 0.268382
11113.684830, 0.268129
11123.752560, 0.268182
11133.146350, 0.268309
11143.208190, 0.268084
11153.266960, 0.268098
11163.322680, 0.267843
11173.375340, 0.267707
11183.424940, 0.267443
11193.471470, 0.267481
11203.514930, 0.267608
11213.555320, 0.267686
11223.592630, 0.267607
11233.626870, 0.267769
11243.658030, 0.267447
11253.686100, 0.267098
11263.711090, 0.266704
11273.064960, 0.266611
11283.083980, 0.266665
11293.099910, 0.266522
11303.112740, 0.266468
11313.122470, 0.266172
11323.129090, 0.265799
11333.132620, 0.265449
11343.133030, 0.265120
11353.130340, 0.264785
11363.124530, 0.264463
11373.115610, 0.264426
11383.103580, 0.264682
11393.088420, 0.264957
11403.070130, 0.264966
11413.048720, 0.264809
11423.024180, 0.264585
11432.996510, 0.264561
11442.965710, 0.264423
11452.931770, 0.264131
11463.558770, 0.264302
11473.518340, 0.264179
11483.474760, 0.263948
11493.428030, 0.263866
11503.378150, 0.263489
11513.325120, 0.263597
11523.268930, 0.263805
11533.209580, 0.263626
11543.147070, 0.263519
11553.081400, 0.263381
11563.012560, 0.263264
11572.940550, 0.262923
11582.865360, 0.262678
11593.448330, 0.262497
11603.366580, 0.262157
11613.281650, 0.261924
11623.193530, 0.262053
11633.102230, 0.262159
11643.007740, 0.262522
11652.910060, 0.262832
11662.809180, 0.263036
11673.364720, 0.263028
11683.257230, 0.263026
11693.146540, 0.262720
11703.032640, 0.262520
11712.915540, 0.262187
11722.795220, 0.261870
11733.330010, 0.261507
11743.203040, 0.261218
11753.072860, 0.261075
11762.939460, 0.260967
11772.802830, 0.260627
11783.320200, 0.260370
11793.176900, 0.260314
11803.030360, 0.260148
11812.880590, 0.259831
11822.727580, 0.259547
11833.227470, 0.259432
11843.067760, 0.259254
11852.904800, 0.259482
11862.738590, 0.259498
11873.224390, 0.259457
11883.051450, 0.259120
11892.875260, 0.258983
11902.695810, 0.258772
11913.167470, 0.258687
11922.981270, 0.258616
11932.791810, 0.258591
11942.599070, 0.258469
11953.056540, 0.258819
11962.857040, 0.258644
11972.654250, 0.258694
11983.100990, 0.259173
11992.891420, 0.259513
12002.678560, 0.259718
12013.114550, 0.260464
12022.894880, 0.260847
12032.671920, 0.260696
12043.097130, 0.260372
12052.867350, 0.260057
12062.634260, 0.259749
12073.048660, 0.259478
12082.808740, 0.259172
12092.565500, 0.258892
12102.969060, 0.258836
12112.718970, 0.258945
12122.465560, 0.259165
12132.858260, 0.259825
12142.597980, 0.260228
12152.983340, 0.260407
12162.716180, 0.260415
12172.445680, 0.260603
12182.820130, 0.260314
12192.542730, 0.260546
12202.909820, 0.260414
12212.625510, 0.260169
12222.985230, 0.260171
12232.693990, 0.259850
12242.399410, 0.259637
12252.748150, 0.259411
12262.446620, 0.259240
12272.787960, 0.259093
12282.479480, 0.259328
12292.813390, 0.259842
12302.497960, 0.259938
12312.824440, 0.259703
12322.502030, 0.259441
12332.821060, 0.259133
12342.491670, 0.258982
12352.803250, 0.258783
12362.466860, 0.258481
12372.770970, 0.258422
12382.427570, 0.258488
12392.724200, 0.258679
12402.373780, 0.258664
12412.662920, 0.258412
12422.305470, 0.258092
12432.587110, 0.257792
12442.222620, 0.257822
12452.496730, 0.257527
12462.766970, 0.257415
12472.391780, 0.257409
12482.654480, 0.257369
12492.272220, 0.257092
12502.527380, 0.256808
12512.778630, 0.256502
12522.385630, 0.256537
12532.629320, 0.256514
12542.229220, 0.256519
12552.465330, 0.256351
12562.697530, 0.256121
12572.286650, 0.256359
12582.511250, 0.256519
12592.731920, 0.256454
12602.310240, 0.256438
12612.523300, 0.256177
12622.094470, 0.256273
12632.299910, 0.256377
12642.501400, 0.256121
12652.698950, 0.255812
12662.255570, 0.255630
12672.445470, 0.255429
12682.631420, 0.255452
12692.177150, 0.255216
12702.355440, 0.254911
12712.529750, 0.254781
12722.064580, 0.254612
12732.231210, 0.254735
12742.393870, 0.254741
12752.552560, 0.254822
12762.072710, 0.254740
12772.223690, 0.254734
12782.370680, 0.254463
12792.513690, 0.254288
12802.019130, 0.253980
12812.154400, 0.253875
12822.285680, 0.253635
12832.412950, 0.253502
12842.536220, 0.253622
12852.023150, 0.253606
12862.138660, 0.253846
12872.250160, 0.253774
12882.357640, 0.253990
12892.461100, 0.254620
12901.929440, 0.255268
12912.025110, 0.256101
12922.116750, 0.256738
12932.204360, 0.256688
12942.287940, 0.256616
12952.367470, 0.256567
12962.442970, 0.256662
12971.885080, 0.256977
12981.952740, 0.256857
12992.016350, 0.256714
13002.075910, 0.256487
13012.131410, 0.256420
13022.182860, 0.256176
13032.230240, 0.256144
13042.273560, 0.256160
13052.312810, 0.255916
13062.347990, 0.255901
13072.379090, 0.255944
13081.779550, 0.256116
13091.802750, 0.256111
13101.821860, 0.256194
13111.836890, 0.256298
13121.847830, 0.256076
13131.854680, 0.255826
13141.857430, 0.255559
13151.856080, 0.255462
13161.850630, 0.255597
13171.841070, 0.255445
13181.827400, 0.255432
13191.809630, 0.255169
13201.787740, 0.254919
13211.761720, 0.254966
13221.731590, 0.254786
13231.697340, 0.254775
13241.658950, 0.254733
13252.238650, 0.254676
13262.191740, 0.254392
13272.140700, 0.254128
13282.085520, 0.254189
13292.026190, 0.254549
13301.962720, 0.255026
13311.895100, 0.255390
13321.823330, 0.255724
13331.747400, 0.256091
13341.667310, 0.256343
13351.583060, 0.256386
13362.113980, 0.256795
13372.021140, 0.257027
13381.924130, 0.256908
13391.822940, 0.256648
13401.717580, 0.256462
13411.608030, 0.256360
13422.112060, 0.256173
13431.993880, 0.255908
13441.871510, 0.255771
13451.744950, 0.255861
13461.614200, 0.255756
13472.095670, 0.255627
13481.956250, 0.255494
13491.812630, 0.255420
13501.664790, 0.255208
13511.512750, 0.255083
13521.971580, 0.255112
13531.810840, 0.255306
13541.645880, 0.255534
13551.476690, 0.255718
13561.917300, 0.255557
13571.739400, 0.255336
13581.557250, 0.255509
13591.984090, 0.255440
13601.793210, 0.255402
13611.598080, 0.255366
13621.398710, 0.255458
13631.807220, 0.256049
13641.599090, 0.256471
13651.386690, 0.257141
13661.781360, 0.257564
13671.560180, 0.257810
13681.945510, 0.257681
13691.715530, 0.257455
13701.481280, 0.257382
13711.852710, 0.257346
13721.609640, 0.257221
13731.362300, 0.257052
13741.719800, 0.257238
13751.463610, 0.257277
13761.811720, 0.257175
13771.546680, 0.257083
13781.885380, 0.257017
13791.611480, 0.257622
13801.333280, 0.257956
13811.657980, 0.258052
13821.370890, 0.258319
13831.686150, 0.258560
13841.390170, 0.258463
13851.695960, 0.258366
13861.391080, 0.258154
13871.687400, 0.258445
13881.373590, 0.258458
13891.660430, 0.258679
13901.337690, 0.258701
13911.615020, 0.258796
13921.283340, 0.258530
13931.551160, 0.258650
13941.210510, 0.258715
13951.468810, 0.258765
13961.722190, 0.258500
13971.367950, 0.258548
13981.611790, 0.258458
13991.248550, 0.258271
14001.482830, 0.258012
14011.712170, 0.257775
14021.335290, 0.258156
14031.555050, 0.258363
14041.169140, 0.258646
14051.379310, 0.258734
14061.584530, 0.258615
14071.184930, 0.258632
14081.380530, 0.258621
14091.571180, 0.258797
14101.157850, 0.259000
14111.338860, 0.259252
14121.514910, 0.259065
14131.087820, 0.258924
14141.254210, 0.258771
14151.415610, 0.258608
14161.572040, 0.258578
14171.126470, 0.258947
14181.273210, 0.259200
14191.414960, 0.259092
14201.551710, 0.258840
14211.087620, 0.258608
14221.214660, 0.258700
14231.336690, 0.258539
14241.453710, 0.258317
14250.971030, 0.258316
14261.078310, 0.258421
14271.180570, 0.258316
14281.277810, 0.258227
14291.370010, 0.258105
14301.457180, 0.258110
14310.946390, 0.258097
14321.023790, 0.257976
14331.096140, 0.258161
14341.163440, 0.258051
14351.225700, 0.257974
14361.282900, 0.257914
14371.335040, 0.257785
14381.382130, 0.257699
14391.424150, 0.257855
14400.870830, 0.258247
14410.903010, 0.258216
14420.930110, 0.258037
14430.952140, 0.257866
14440.969080, 0.257877
14450.980940, 0.257901
14460.987710, 0.257806
14470.989390, 0.257914
14480.985970, 0.257950
14490.977450, 0.257803
14500.963830, 0.257892
14510.945100, 0.258546
14520.921270, 0.259718
14530.892320, 0.260462
14540.858250, 0.261239
14550.819060, 0.261204
14560.774750, 0.261278
14571.310480, 0.261798
14581.255610, 0.262060
14591.195610, 0.262752
14601.130460, 0.262551
14611.060180, 0.262460
14620.984750, 0.262569
14630.904170, 0.263086
14640.818440, 0.263761
14650.727550, 0.263523
14661.213930, 0.263457
14671.112420, 0.263274
14681.005740, 0.263449
14690.893890, 0.263479
14700.776870, 0.263593
14710.654670, 0.263547
14721.107870, 0.263610
14730.975000, 0.263422
14740.836950, 0.263315
14750.693700, 0.264335
14761.124610, 0.265711
14770.970660, 0.267725
14780.811520, 0.269979
14790.647170, 0.271747
14801.055710, 0.272943
14810.880640, 0.273403
14820.700340, 0.273865
14831.091990, 0.273958
14840.900950, 0.274202
14850.704690, 0.274250
14861.079410, 0.274421
14870.872370, 0.274566
14880.660100, 0.274686
14891.017860, 0.274792
14900.794800, 0.274793
14910.566490, 0.275035
14920.907260, 0.275425
14930.668130, 0.275183
14940.997440, 0.275409
14950.747490, 0.276553
14960.492270, 0.277109
14970.804530, 0.277624
14980.538460, 0.277792
14990.839220, 0.277845
15000.562290, 0.277655
15010.851540, 0.278701
15020.563730, 0.280076
15030.841460, 0.281245
15040.542750, 0.281475
15050.808940, 0.281382
15060.499320, 0.281361
15070.753950, 0.281627
15080.433420, 0.281850
15090.676470, 0.282326
15100.913570, 0.282752
15110.576470, 0.283274
15120.801970, 0.283935
15130.453910, 0.284452
15140.667800, 0.284874
15150.875710, 0.285300
15160.511030, 0.285054
15170.707310, 0.284839
15180.331630, 0.284606
15190.516260, 0.284633
15200.694890, 0.284499
15210.302530, 0.284717
15220.469500, 0.284912
15230.630450, 0.284851
15240.785390, 0.285014
15250.370640, 0.285054
15260.513880, 0.285706
15270.651090, 0.286341
15280.782270, 0.286999
15290.345070, 0.287662
15300.464520, 0.287692
15310.577930, 0.287792
15320.685300, 0.288315
15330.225590, 0.288658
15340.321190, 0.288984
15350.410730, 0.288910
15360.494220, 0.289418
15370.571640, 0.290606
15380.642990, 0.291191
15390.708270, 0.291460
15400.208790, 0.291358
15410.262250, 0.291548
15420.309630, 0.292253
15430.350920, 0.292426
15440.386120, 0.292639
15450.415220, 0.292799
15460.438230, 0.292546
15470.455130, 0.292974
15480.465920, 0.293196
15490.470600, 0.292973
15500.469170, 0.292764
15510.461610, 0.293106
15520.447940, 0.292879
15530.428130, 0.292797
15540.402200, 0.292594
15550.370130, 0.292517
15560.331920, 0.292523
15570.287570, 0.292629
15580.237070, 0.292809
15590.180420, 0.293073
15600.117610, 0.292916
15610.048650, 0.293151
15620.524720, 0.294173
15630.443090, 0.294957
15640.355280, 0.296264
15650.261300, 0.296800
15660.161140, 0.297416
15670.054800, 0.297587
15680.491400, 0.297636
15690.372340, 0.298132
15700.247080, 0.298450
15710.115630, 0.299100
15719.977970, 0.300053
15730.381490, 0.300640
15740.231070, 0.300775
15750.074440, 0.300564
15759.911590, 0.301024
15770.288500, 0.301501
15780.112860, 0.301909
15789.930980, 0.302394
15800.287800, 0.302912
15810.093110, 0.303906
15819.892180, 0.303700
15830.228860, 0.303630
15840.015090, 0.304045
15850.338210, 0.304664
15860.111580, 0.305118
15869.878690, 0.305655
15880.181610, 0.306262
15889.935840, 0.306470
15900.225160, 0.307145
15909.966480, 0.307837
15920.242180, 0.308225
15929.970590, 0.308717
15940.232640, 0.309435
15949.948120, 0.309573
15960.196520, 0.309883
15969.899050, 0.309674
15980.133770, 0.309466
15989.823340, 0.309881
16000.044360, 0.310296
