# Wavelength  (nm), Transmission (%)
200.000000, 0.000117
201.000000, 0.000112
202.000000, 0.000115
203.000000, 0.000121
204.000000, 0.000095
205.000000, 0.000075
206.000000, 0.000046
207.000000, 0.000065
208.000000, 0.000068
209.000000, 0.000076
210.000000, 0.000048
211.000000, 0.000024
212.000000, 0.000007
213.000000, 0.000005
214.000000, 0.000007
215.000000, 0.000026
216.000000, 0.000017
217.000000, 0.000009
218.000000, 0.000005
219.000000, 0.000018
220.000000, 0.000023
221.000000, 0.000042
222.000000, 0.000019
223.000000, 0.000012
224.000000, 0.000001
225.000000, 0.000008
226.000000, 0.000009
227.000000, 0.000005
228.000000, 0.000015
229.000000, 0.000030
230.000000, 0.000035
231.000000, 0.000009
232.000000, 0.000007
233.000000, 0.000018
234.000000, 0.000004
235.000000, 0.000018
236.000000, 0.000036
237.000000, 0.000031
238.000000, 0.000016
239.000000, 0.000001
240.000000, 0.000001
241.000000, 0.000012
242.000000, 0.000018
243.000000, 0.000011
244.000000, 0.000002
245.000000, 0.000001
246.000000, 0.000003
247.000000, 0.000013
248.000000, 0.000026
249.000000, 0.000020
250.000000, 0.000013
251.000000, 0.000011
252.000000, 0.000023
253.000000, 0.000030
254.000000, 0.000024
255.000000, 0.000012
256.000000, 0.000007
257.000000, 0.000008
258.000000, 0.000016
259.000000, 0.000021
260.000000, 0.000020
261.000000, 0.000013
262.000000, 0.000004
263.000000, 0.000001
264.000000, 0.000016
265.000000, 0.000028
266.000000, 0.000024
267.000000, 0.000005
268.000000, 0.000004
269.000000, 0.000006
270.000000, 0.000021
271.000000, 0.000020
272.000000, 0.000026
273.000000, 0.000016
274.000000, 0.000015
275.000000, 0.000012
276.000000, 0.000021
277.000000, 0.000025
278.000000, 0.000032
279.000000, 0.000025
280.000000, 0.000028
281.000000, 0.000015
282.000000, 0.000025
283.000000, 0.000029
284.000000, 0.000039
285.000000, 0.000015
286.000000, 0.000009
287.000000, 0.000002
288.000000, 0.000022
289.000000, 0.000018
290.000000, 0.000018
291.000000, 0.000004
292.000000, 0.000003
293.000000, 0.000001
294.000000, 0.000030
295.000000, 0.000022
296.000000, 0.000024
297.000000, 0.000008
298.000000, 0.000009
299.000000, 0.000002
300.000000, 0.000030
301.000000, 0.000021
302.000000, 0.000023
303.000000, 0.000011
304.000000, 0.000024
305.000000, 0.000033
306.000000, 0.000039
307.000000, 0.000027
308.000000, 0.000024
309.000000, 0.000005
310.000000, 0.000010
311.000000, 0.000005
312.000000, 0.000028
313.000000, 0.000022
314.000000, 0.000032
315.000000, 0.000010
316.000000, 0.000022
317.000000, 0.000021
318.000000, 0.000035
319.000000, 0.000022
320.000000, 0.000002
321.000000, 0.000027
322.000000, 0.000022
323.000000, 0.000019
324.000000, 0.000002
325.000000, 0.000002
326.000000, 0.000018
327.000000, 0.000022
328.000000, 0.000012
329.000000, 0.000012
330.000000, 0.000012
331.000000, 0.000009
332.000000, 0.000007
333.000000, 0.000007
334.000000, 0.000009
335.000000, 0.000018
336.000000, 0.000011
337.000000, 0.000007
338.000000, 0.000020
339.000000, 0.000009
340.000000, 0.000006
341.000000, 0.000014
342.000000, 0.000013
343.000000, 0.000015
344.000000, 0.000023
345.000000, 0.000004
346.000000, 0.000014
347.000000, 0.000013
348.000000, 0.000048
349.000000, 0.000086
350.000000, 0.000144
351.000000, 0.000216
352.000000, 0.000325
353.000000, 0.000468
354.000000, 0.000679
355.000000, 0.000941
356.000000, 0.001307
357.000000, 0.001783
358.000000, 0.002424
359.000000, 0.003254
360.000000, 0.004299
361.000000, 0.005580
362.000000, 0.007142
363.000000, 0.009001
364.000000, 0.011162
365.000000, 0.013613
366.000000, 0.016447
367.000000, 0.019669
368.000000, 0.023262
369.000000, 0.027022
370.000000, 0.030678
371.000000, 0.033985
372.000000, 0.036723
373.000000, 0.038769
374.000000, 0.040147
375.000000, 0.040892
376.000000, 0.041377
377.000000, 0.042110
378.000000, 0.043645
379.000000, 0.046670
380.000000, 0.051429
381.000000, 0.058140
382.000000, 0.066833
383.000000, 0.077382
384.000000, 0.089656
385.000000, 0.103252
386.000000, 0.118333
387.000000, 0.134743
388.000000, 0.152517
389.000000, 0.171647
390.000000, 0.191559
391.000000, 0.211576
392.000000, 0.231474
393.000000, 0.251362
394.000000, 0.271515
395.000000, 0.291898
396.000000, 0.312411
397.000000, 0.331909
398.000000, 0.350552
399.000000, 0.368851
400.000000, 0.387148
401.000000, 0.404386
402.000000, 0.419903
403.000000, 0.433965
404.000000, 0.446306
405.000000, 0.456585
406.000000, 0.465808
407.000000, 0.474844
408.000000, 0.483886
409.000000, 0.491086
410.000000, 0.497398
411.000000, 0.503290
412.000000, 0.510227
413.000000, 0.517985
414.000000, 0.526401
415.000000, 0.534380
416.000000, 0.541930
417.000000, 0.549904
418.000000, 0.559855
419.000000, 0.571163
420.000000, 0.583063
421.000000, 0.594051
422.000000, 0.604466
423.000000, 0.614924
424.000000, 0.626411
425.000000, 0.639094
426.000000, 0.651678
427.000000, 0.662221
428.000000, 0.670949
429.000000, 0.678629
430.000000, 0.686970
431.000000, 0.695078
432.000000, 0.701894
433.000000, 0.705986
434.000000, 0.707749
435.000000, 0.708215
436.000000, 0.709542
437.000000, 0.711430
438.000000, 0.712996
439.000000, 0.713855
440.000000, 0.714308
441.000000, 0.716829
442.000000, 0.721839
443.000000, 0.730149
444.000000, 0.739563
445.000000, 0.749332
446.000000, 0.759439
447.000000, 0.771468
448.000000, 0.786195
449.000000, 0.803108
450.000000, 0.820101
451.000000, 0.835409
452.000000, 0.849373
453.000000, 0.863346
454.000000, 0.878834
455.000000, 0.894639
456.000000, 0.909306
457.000000, 0.921803
458.000000, 0.932487
459.000000, 0.943164
460.000000, 0.954077
461.000000, 0.965104
462.000000, 0.974019
463.000000, 0.979203
464.000000, 0.981768
465.000000, 0.983667
466.000000, 0.986566
467.000000, 0.989617
468.000000, 0.990836
469.000000, 0.989666
470.000000, 0.986421
471.000000, 0.983388
472.000000, 0.981021
473.000000, 0.978857
474.000000, 0.976158
475.000000, 0.972199
476.000000, 0.967352
477.000000, 0.963074
478.000000, 0.960097
479.000000, 0.957747
480.000000, 0.953865
481.000000, 0.947620
482.000000, 0.940382
483.000000, 0.934036
484.000000, 0.929831
485.000000, 0.927132
486.000000, 0.924002
487.000000, 0.919863
488.000000, 0.915449
489.000000, 0.910483
490.000000, 0.906020
491.000000, 0.902001
492.000000, 0.898602
493.000000, 0.894907
494.000000, 0.890709
495.000000, 0.887793
496.000000, 0.886741
497.000000, 0.886266
498.000000, 0.884970
499.000000, 0.881890
500.000000, 0.878245
501.000000, 0.875085
502.000000, 0.873791
503.000000, 0.873845
504.000000, 0.873479
505.000000, 0.871782
506.000000, 0.869664
507.000000, 0.868378
508.000000, 0.869146
509.000000, 0.871306
510.000000, 0.873541
511.000000, 0.874958
512.000000, 0.875217
513.000000, 0.875277
514.000000, 0.877059
515.000000, 0.880197
516.000000, 0.883994
517.000000, 0.886411
518.000000, 0.888070
519.000000, 0.890633
520.000000, 0.894998
521.000000, 0.901007
522.000000, 0.906482
523.000000, 0.910348
524.000000, 0.913463
525.000000, 0.917520
526.000000, 0.923871
527.000000, 0.930320
528.000000, 0.936311
529.000000, 0.941606
530.000000, 0.947065
531.000000, 0.954199
532.000000, 0.962085
533.000000, 0.970252
534.000000, 0.978076
535.000000, 0.984723
536.000000, 0.990282
537.000000, 0.995892
538.000000, 1.001500
539.000000, 1.007364
540.000000, 1.013330
541.000000, 1.019064
542.000000, 1.024129
543.000000, 1.027306
544.000000, 1.030296
545.000000, 1.034254
546.000000, 1.038720
547.000000, 1.043257
548.000000, 1.045538
549.000000, 1.045875
550.000000, 1.045821
551.000000, 1.046084
552.000000, 1.047596
553.000000, 1.048922
554.000000, 1.048358
555.000000, 1.044916
556.000000, 1.040225
557.000000, 1.038334
558.000000, 1.037169
559.000000, 1.034704
560.000000, 1.029919
561.000000, 1.025309
562.000000, 1.020613
563.000000, 1.016388
564.000000, 1.011516
565.000000, 1.006092
566.000000, 1.000832
567.000000, 0.996050
568.000000, 0.991115
569.000000, 0.985835
570.000000, 0.979606
571.000000, 0.974347
572.000000, 0.969336
573.000000, 0.964094
574.000000, 0.958252
575.000000, 0.951808
576.000000, 0.946431
577.000000, 0.942337
578.000000, 0.937645
579.000000, 0.932389
580.000000, 0.926476
581.000000, 0.922736
582.000000, 0.920126
583.000000, 0.917418
584.000000, 0.913966
585.000000, 0.910852
586.000000, 0.909612
587.000000, 0.909245
588.000000, 0.909951
589.000000, 0.911293
590.000000, 0.911773
591.000000, 0.912303
592.000000, 0.913878
593.000000, 0.917552
594.000000, 0.921470
595.000000, 0.924258
596.000000, 0.927118
597.000000, 0.931762
598.000000, 0.937605
599.000000, 0.944858
600.000000, 0.951517
601.000000, 0.958570
602.000000, 0.963960
603.000000, 0.969180
604.000000, 0.974540
605.000000, 0.981320
606.000000, 0.988618
607.000000, 0.996911
608.000000, 1.004186
609.000000, 1.011345
610.000000, 1.017937
611.000000, 1.025967
612.000000, 1.033721
613.000000, 1.042421
614.000000, 1.050561
615.000000, 1.058714
616.000000, 1.065676
617.000000, 1.073873
618.000000, 1.082337
619.000000, 1.091569
620.000000, 1.098582
621.000000, 1.105048
622.000000, 1.110072
623.000000, 1.115816
624.000000, 1.122568
625.000000, 1.130525
626.000000, 1.139460
627.000000, 1.145851
628.000000, 1.151362
629.000000, 1.154825
630.000000, 1.159542
631.000000, 1.164511
632.000000, 1.171135
633.000000, 1.175948
634.000000, 1.178822
635.000000, 1.180135
636.000000, 1.183945
637.000000, 1.190052
638.000000, 1.195262
639.000000, 1.199465
640.000000, 1.202751
641.000000, 1.207889
642.000000, 1.213733
643.000000, 1.220272
644.000000, 1.227149
645.000000, 1.234157
646.000000, 1.240631
647.000000, 1.247382
648.000000, 1.254781
649.000000, 1.262320
650.000000, 1.270419
651.000000, 1.280088
652.000000, 1.290773
653.000000, 1.300171
654.000000, 1.308400
655.000000, 1.320061
656.000000, 1.335010
657.000000, 1.349352
658.000000, 1.361618
659.000000, 1.374705
660.000000, 1.391075
661.000000, 1.410602
662.000000, 1.431658
663.000000, 1.451983
664.000000, 1.471101
665.000000, 1.491772
666.000000, 1.514561
667.000000, 1.541314
668.000000, 1.566559
669.000000, 1.596946
670.000000, 1.625065
671.000000, 1.655259
672.000000, 1.686501
673.000000, 1.721837
674.000000, 1.757809
675.000000, 1.794560
676.000000, 1.832591
677.000000, 1.873996
678.000000, 1.916217
679.000000, 1.962844
680.000000, 2.012324
681.000000, 2.059560
682.000000, 2.103870
683.000000, 2.149701
684.000000, 2.197402
685.000000, 2.252175
686.000000, 2.303223
687.000000, 2.358145
688.000000, 2.406175
689.000000, 2.460476
690.000000, 2.515026
691.000000, 2.574069
692.000000, 2.626823
693.000000, 2.678394
694.000000, 2.728344
695.000000, 2.777873
696.000000, 2.827360
697.000000, 2.874674
698.000000, 2.922367
699.000000, 2.971365
700.000000, 3.021208
701.000000, 3.070912
702.000000, 3.113438
703.000000, 3.161630
704.000000, 3.203374
705.000000, 3.248281
706.000000, 3.284008
707.000000, 3.323098
708.000000, 3.363618
709.000000, 3.403995
710.000000, 3.445570
711.000000, 3.478005
712.000000, 3.507773
713.000000, 3.539201
714.000000, 3.573830
715.000000, 3.607936
716.000000, 3.641456
717.000000, 3.672723
718.000000, 3.705458
719.000000, 3.727254
720.000000, 3.760039
721.000000, 3.784599
722.000000, 3.817463
723.000000, 3.840283
724.000000, 3.861453
725.000000, 3.884699
726.000000, 3.906180
727.000000, 3.932806
728.000000, 3.954855
729.000000, 3.974151
730.000000, 4.001235
731.000000, 4.017862
732.000000, 4.041658
733.000000, 4.062303
734.000000, 4.080217
735.000000, 4.095354
736.000000, 4.110968
737.000000, 4.131427
738.000000, 4.150768
739.000000, 4.166515
740.000000, 4.181217
741.000000, 4.193555
742.000000, 4.204892
743.000000, 4.225630
744.000000, 4.240598
745.000000, 4.259738
746.000000, 4.265866
747.000000, 4.279927
748.000000, 4.286527
749.000000, 4.303762
750.000000, 4.318998
751.000000, 4.336046
752.000000, 4.347461
753.000000, 4.357305
754.000000, 4.370613
755.000000, 4.384617
756.000000, 4.398480
757.000000, 4.412283
758.000000, 4.421497
759.000000, 4.428966
760.000000, 4.431257
761.000000, 4.445340
762.000000, 4.454897
763.000000, 4.467849
764.000000, 4.470389
765.000000, 4.479483
766.000000, 4.487763
767.000000, 4.500955
768.000000, 4.507809
769.000000, 4.519018
770.000000, 4.521323
771.000000, 4.529147
772.000000, 4.530585
773.000000, 4.535314
774.000000, 4.540007
775.000000, 4.547256
776.000000, 4.552271
777.000000, 4.560750
778.000000, 4.567979
779.000000, 4.580659
780.000000, 4.582034
781.000000, 4.586388
782.000000, 4.594579
783.000000, 4.597609
784.000000, 4.594311
785.000000, 4.591645
786.000000, 4.595815
787.000000, 4.598956
788.000000, 4.600920
789.000000, 4.607877
790.000000, 4.617160
791.000000, 4.622519
792.000000, 4.626017
793.000000, 4.625351
794.000000, 4.627071
795.000000, 4.628550
796.000000, 4.629110
797.000000, 4.627597
798.000000, 4.630049
799.000000, 4.631552
800.000000, 4.633751
801.000000, 4.636729
802.000000, 4.635314
803.000000, 4.633648
804.000000, 4.627694
805.000000, 4.627077
806.000000, 4.627908
807.000000, 4.629300
808.000000, 4.630554
809.000000, 4.628458
810.000000, 4.623491
811.000000, 4.623627
812.000000, 4.627730
813.000000, 4.631661
814.000000, 4.630000
815.000000, 4.626862
816.000000, 4.627587
817.000000, 4.622916
818.000000, 4.619469
819.000000, 4.609093
820.000000, 4.612578
821.000000, 4.605673
822.000000, 4.607537
823.000000, 4.600101
824.000000, 4.599522
825.000000, 4.597715
826.000000, 4.604341
827.000000, 4.602356
828.000000, 4.600874
829.000000, 4.594334
830.000000, 4.593477
831.000000, 4.584208
832.000000, 4.580231
833.000000, 4.579314
834.000000, 4.579328
835.000000, 4.574450
836.000000, 4.566873
837.000000, 4.563516
838.000000, 4.561067
839.000000, 4.558629
840.000000, 4.556484
841.000000, 4.550390
842.000000, 4.546356
843.000000, 4.536916
844.000000, 4.530981
845.000000, 4.528726
846.000000, 4.525817
847.000000, 4.517512
848.000000, 4.503909
849.000000, 4.493893
850.000000, 4.493848
851.000000, 4.495676
852.000000, 4.492282
853.000000, 4.485209
854.000000, 4.479066
855.000000, 4.478309
856.000000, 4.470053
857.000000, 4.462242
858.000000, 4.458041
859.000000, 4.458472
860.000000, 4.441974
861.000000, 4.389505
862.000000, 4.302078
863.000000, 4.230086
864.000000, 4.202088
865.000000, 4.231778
866.000000, 4.285468
867.000000, 4.339532
868.000000, 4.333563
869.000000, 4.270762
870.000000, 4.196119
871.000000, 4.156930
872.000000, 4.148340
873.000000, 4.154727
874.000000, 4.180629
875.000000, 4.210463
876.000000, 4.224597
877.000000, 4.216301
878.000000, 4.189125
879.000000, 4.154976
880.000000, 4.131537
881.000000, 4.148222
882.000000, 4.181704
883.000000, 4.208762
884.000000, 4.187669
885.000000, 4.128456
886.000000, 4.077464
887.000000, 4.092531
888.000000, 4.155685
889.000000, 4.177413
890.000000, 4.127852
891.000000, 4.056287
892.000000, 4.028800
893.000000, 4.056202
894.000000, 4.102524
895.000000, 4.136515
896.000000, 4.112072
897.000000, 4.048179
898.000000, 3.994307
899.000000, 3.988103
900.000000, 4.027493
901.000000, 4.063537
902.000000, 4.048703
903.000000, 3.982402
904.000000, 3.930035
905.000000, 3.954827
906.000000, 4.021325
907.000000, 4.041288
908.000000, 4.008518
909.000000, 3.982799
910.000000, 3.974480
911.000000, 3.946846
912.000000, 3.902348
913.000000, 3.895903
914.000000, 3.909529
915.000000, 3.900222
916.000000, 3.865464
917.000000, 3.860182
918.000000, 3.908298
919.000000, 3.972899
920.000000, 3.997799
921.000000, 3.949320
922.000000, 3.880697
923.000000, 3.864486
924.000000, 3.910558
925.000000, 3.942659
926.000000, 3.897556
927.000000, 3.828261
928.000000, 3.817048
929.000000, 3.876873
930.000000, 3.920679
931.000000, 3.872358
932.000000, 3.770635
933.000000, 3.711784
934.000000, 3.743014
935.000000, 3.832232
936.000000, 3.874207
937.000000, 3.843063
938.000000, 3.788101
939.000000, 3.776342
940.000000, 3.792808
941.000000, 3.808165
942.000000, 3.795380
943.000000, 3.753679
944.000000, 3.716211
945.000000, 3.714823
946.000000, 3.742536
947.000000, 3.771153
948.000000, 3.763686
949.000000, 3.723452
950.000000, 3.689356
951.000000, 3.695596
952.000000, 3.717065
953.000000, 3.698351
954.000000, 3.658696
955.000000, 3.643224
956.000000, 3.664253
957.000000, 3.680725
958.000000, 3.697303
959.000000, 3.686779
960.000000, 3.657223
961.000000, 3.634698
962.000000, 3.630899
963.000000, 3.660622
964.000000, 3.677636
965.000000, 3.671380
966.000000, 3.668215
967.000000, 3.665720
968.000000, 3.651139
969.000000, 3.596067
970.000000, 3.563619
971.000000, 3.570614
972.000000, 3.618056
973.000000, 3.647788
974.000000, 3.646955
975.000000, 3.621645
976.000000, 3.613267
977.000000, 3.614236
978.000000, 3.606957
979.000000, 3.600646
980.000000, 3.598809
981.000000, 3.580951
982.000000, 3.535889
983.000000, 3.521473
984.000000, 3.532812
985.000000, 3.550190
986.000000, 3.583072
987.000000, 3.623135
988.000000, 3.637719
989.000000, 3.588738
990.000000, 3.527470
991.000000, 3.526739
992.000000, 3.546008
993.000000, 3.550960
994.000000, 3.502659
995.000000, 3.452568
996.000000, 3.464248
997.000000, 3.497339
998.000000, 3.530834
999.000000, 3.521542
1000.000000, 3.535586
1001.000000, 3.550562
1002.000000, 3.546485
1003.000000, 3.501137
1004.000000, 3.461805
1005.000000, 3.489113
1006.000000, 3.536695
1007.000000, 3.570777
1008.000000, 3.536138
1009.000000, 3.483642
1010.000000, 3.456587
1011.000000, 3.477538
1012.000000, 3.514181
1013.000000, 3.538426
1014.000000, 3.515664
1015.000000, 3.472755
1016.000000, 3.437698
1017.000000, 3.460648
1018.000000, 3.515914
1019.000000, 3.538939
1020.000000, 3.515186
1021.000000, 3.456133
1022.000000, 3.425443
1023.000000, 3.444678
1024.000000, 3.493094
1025.000000, 3.526209
1026.000000, 3.500874
1027.000000, 3.468782
1028.000000, 3.450175
1029.000000, 3.479754
1030.000000, 3.512326
1031.000000, 3.532247
1032.000000, 3.510704
1033.000000, 3.468700
1034.000000, 3.423871
1035.000000, 3.387015
1036.000000, 3.413206
1037.000000, 3.459595
1038.000000, 3.501716
1039.000000, 3.488519
1040.000000, 3.449854
1041.000000, 3.421739
1042.000000, 3.441863
1043.000000, 3.486436
1044.000000, 3.519480
1045.000000, 3.506379
1046.000000, 3.473117
1047.000000, 3.448933
1048.000000, 3.407524
1049.000000, 3.386267
1050.000000, 3.427605
1051.000000, 3.489639
1052.000000, 3.542518
1053.000000, 3.523526
1054.000000, 3.494443
1055.000000, 3.455900
1056.000000, 3.424191
1057.000000, 3.398661
1058.000000, 3.452679
1059.000000, 3.511767
1060.000000, 3.573023
1061.000000, 3.570360
1062.000000, 3.552161
1063.000000, 3.525753
1064.000000, 3.498028
1065.000000, 3.464342
1066.000000, 3.426692
1067.000000, 3.378134
1068.000000, 3.368366
1069.000000, 3.436323
1070.000000, 3.518762
1071.000000, 3.572787
1072.000000, 3.572013
1073.000000, 3.566929
1074.000000, 3.553290
1075.000000, 3.517506
1076.000000, 3.466709
1077.000000, 3.432943
1078.000000, 3.484746
1079.000000, 3.553631
1080.000000, 3.607086
1081.000000, 3.575206
1082.000000, 3.533462
1083.000000, 3.493992
1084.000000, 3.464281
1085.000000, 3.504367
1086.000000, 3.562252
1087.000000, 3.609912
1088.000000, 3.600511
1089.000000, 3.575013
1090.000000, 3.548168
1091.000000, 3.512567
1092.000000, 3.490503
1093.000000, 3.555219
1094.000000, 3.620209
1095.000000, 3.683209
1096.000000, 3.662294
1097.000000, 3.629709
1098.000000, 3.579902
1099.000000, 3.544619
1100.000000, 3.516670
1101.000000, 3.523419
1102.000000, 3.592361
1103.000000, 3.664124
1104.000000, 3.729448
1105.000000, 3.730543
1106.000000, 3.733122
1107.000000, 3.712443
1108.000000, 3.698608
1109.000000, 3.693284
1110.000000, 3.689473
1111.000000, 3.668231
1112.000000, 3.652900
1113.000000, 3.632665
1114.000000, 3.617300
1115.000000, 3.614254
1116.000000, 3.607806
1117.000000, 3.597146
1118.000000, 3.563818
1119.000000, 3.532044
1120.000000, 3.506006
1121.000000, 3.528134
1122.000000, 3.629827
1123.000000, 3.721070
1124.000000, 3.752003
1125.000000, 3.718740
1126.000000, 3.716403
1127.000000, 3.796775
1128.000000, 3.880874
1129.000000, 3.919397
1130.000000, 3.837991
1131.000000, 3.678039
1132.000000, 3.566771
1133.000000, 3.574056
1134.000000, 3.730442
1135.000000, 3.808758
1136.000000, 3.773567
1137.000000, 3.668499
1138.000000, 3.712004
1139.000000, 3.792216
1140.000000, 3.875548
1141.000000, 3.867962
1142.000000, 3.868163
1143.000000, 3.876781
1144.000000, 3.893539
1145.000000, 3.908653
1146.000000, 3.895811
1147.000000, 3.876339
1148.000000, 3.849420
1149.000000, 3.850307
1150.000000, 3.898531
1151.000000, 3.965719
1152.000000, 4.018668
1153.000000, 4.013961
1154.000000, 4.001469
1155.000000, 3.990237
1156.000000, 3.985612
1157.000000, 3.972106
1158.000000, 3.953723
1159.000000, 3.935106
1160.000000, 3.916940
1161.000000, 3.894862
1162.000000, 3.901600
1163.000000, 3.973269
1164.000000, 4.069874
1165.000000, 4.132350
1166.000000, 4.151646
1167.000000, 4.141362
1168.000000, 4.156520
1169.000000, 4.164820
1170.000000, 4.185445
1171.000000, 4.193457
1172.000000, 4.200418
1173.000000, 4.205922
1174.000000, 4.217414
1175.000000, 4.226658
1176.000000, 4.235068
1177.000000, 4.252002
1178.000000, 4.276523
1179.000000, 4.304429
1180.000000, 4.308946
1181.000000, 4.297749
1182.000000, 4.259783
1183.000000, 4.238084
1184.000000, 4.216019
1185.000000, 4.254186
1186.000000, 4.370346
1187.000000, 4.553379
1188.000000, 4.762749
1189.000000, 4.842082
1190.000000, 4.688609
1191.000000, 4.472416
1192.000000, 4.303871
1193.000000, 4.317682
1194.000000, 4.322377
1195.000000, 4.322884
1196.000000, 4.337251
1197.000000, 4.422903
1198.000000, 4.495419
1199.000000, 4.527581
1200.000000, 4.481632
1201.000000, 4.465542
1202.000000, 4.516982
1203.000000, 4.566573
1204.000000, 4.582575
1205.000000, 4.563246
1206.000000, 4.626514
1207.000000, 4.704614
1208.000000, 4.751162
1209.000000, 4.725937
1210.000000, 4.697625
1211.000000, 4.690733
1212.000000, 4.696940
1213.000000, 4.715025
1214.000000, 4.747383
1215.000000, 4.787529
1216.000000, 4.830456
1217.000000, 4.815097
1218.000000, 4.748746
1219.000000, 4.693956
1220.000000, 4.700325
1221.000000, 4.766710
1222.000000, 4.832657
1223.000000, 4.856339
1224.000000, 4.824337
1225.000000, 4.782164
1226.000000, 4.771345
1227.000000, 4.808914
1228.000000, 4.840105
1229.000000, 4.878687
1230.000000, 4.928056
1231.000000, 4.968687
1232.000000, 4.989904
1233.000000, 4.989652
1234.000000, 5.003452
1235.000000, 5.002279
1236.000000, 4.992895
1237.000000, 5.027486
1238.000000, 5.134941
1239.000000, 5.240058
1240.000000, 5.287455
1241.000000, 5.274356
1242.000000, 5.260717
1243.000000, 5.242527
1244.000000, 5.234773
1245.000000, 5.290231
1246.000000, 5.422051
1247.000000, 5.559915
1248.000000, 5.644222
1249.000000, 5.594134
1250.000000, 5.462623
1251.000000, 5.347490
1252.000000, 5.315740
1253.000000, 5.377895
1254.000000, 5.449462
1255.000000, 5.523793
1256.000000, 5.584061
1257.000000, 5.591985
1258.000000, 5.565463
1259.000000, 5.548524
1260.000000, 5.588709
1261.000000, 5.653351
1262.000000, 5.657365
1263.000000, 5.606220
1264.000000, 5.575512
1265.000000, 5.623555
1266.000000, 5.725254
1267.000000, 5.827813
1268.000000, 5.894435
1269.000000, 5.871610
1270.000000, 5.771544
1271.000000, 5.675408
1272.000000, 5.643160
1273.000000, 5.677248
1274.000000, 5.775454
1275.000000, 5.924262
1276.000000, 6.069725
1277.000000, 6.156283
1278.000000, 6.171563
1279.000000, 6.173673
1280.000000, 6.160904
1281.000000, 6.148079
1282.000000, 6.129270
1283.000000, 6.170705
1284.000000, 6.278926
1285.000000, 6.387516
1286.000000, 6.442847
1287.000000, 6.453965
1288.000000, 6.478880
1289.000000, 6.499677
1290.000000, 6.507030
1291.000000, 6.509187
1292.000000, 6.512640
1293.000000, 6.532440
1294.000000, 6.564808
1295.000000, 6.619907
1296.000000, 6.698330
1297.000000, 6.770022
1298.000000, 6.799480
1299.000000, 6.746959
1300.000000, 6.653353
1301.000000, 6.599066
1302.000000, 6.636697
1303.000000, 6.743625
1304.000000, 6.846058
1305.000000, 6.943598
1306.000000, 7.062776
1307.000000, 7.190108
1308.000000, 7.192663
1309.000000, 7.103587
1310.000000, 7.003101
1311.000000, 6.964840
1312.000000, 6.964495
1313.000000, 6.966101
1314.000000, 7.001267
1315.000000, 7.055454
1316.000000, 7.089599
1317.000000, 7.137920
1318.000000, 7.187783
1319.000000, 7.268430
1320.000000, 7.331871
1321.000000, 7.378378
1322.000000, 7.427863
1323.000000, 7.484868
1324.000000, 7.537813
1325.000000, 7.581533
1326.000000, 7.635711
1327.000000, 7.714344
1328.000000, 7.802207
1329.000000, 7.902412
1330.000000, 8.025758
1331.000000, 8.116032
1332.000000, 8.054883
1333.000000, 7.907164
1334.000000, 7.784945
1335.000000, 7.821093
1336.000000, 7.917871
1337.000000, 8.034045
1338.000000, 8.143258
1339.000000, 8.251782
1340.000000, 8.253506
1341.000000, 8.217151
1342.000000, 8.261246
1343.000000, 8.404013
1344.000000, 8.440511
1345.000000, 8.274471
1346.000000, 8.175171
1347.000000, 8.341226
1348.000000, 8.660536
1349.000000, 8.802097
1350.000000, 8.667809
1351.000000, 8.277503
1352.000000, 7.892020
1353.000000, 7.870688
1354.000000, 8.527286
1355.000000, 9.438678
1356.000000, 9.789685
1357.000000, 9.147688
1358.000000, 7.966740
1359.000000, 7.161908
1360.000000, 7.434327
1361.000000, 8.491261
1362.000000, 9.372629
1363.000000, 9.668033
1364.000000, 9.478147
1365.000000, 9.147092
1366.000000, 8.865129
1367.000000, 8.673286
1368.000000, 8.655943
1369.000000, 8.729301
1370.000000, 9.086201
1371.000000, 9.640565
1372.000000, 10.066081
1373.000000, 10.164964
1374.000000, 10.275396
1375.000000, 10.544701
1376.000000, 10.665801
1377.000000, 10.141603
1378.000000, 8.914398
1379.000000, 7.714781
1380.000000, 7.323978
1381.000000, 8.029975
1382.000000, 9.403668
1383.000000, 10.457214
1384.000000, 10.591081
1385.000000, 9.999523
1386.000000, 9.662119
1387.000000, 10.207067
1388.000000, 11.006358
1389.000000, 11.050015
1390.000000, 10.382479
1391.000000, 9.589310
1392.000000, 9.086487
1393.000000, 8.901613
1394.000000, 9.587556
1395.000000, 10.933455
1396.000000, 11.203278
1397.000000, 10.044317
1398.000000, 8.765319
1399.000000, 9.462075
1400.000000, 11.165081
1401.000000, 11.762329
1402.000000, 11.038172
1403.000000, 10.134369
1404.000000, 10.133675
1405.000000, 10.202629
1406.000000, 10.025282
1407.000000, 10.090345
1408.000000, 10.845098
1409.000000, 11.713738
1410.000000, 11.710115
1411.000000, 10.927092
1412.000000, 10.213275
1413.000000, 10.456891
1414.000000, 10.919172
1415.000000, 11.044789
1416.000000, 10.698154
1417.000000, 10.666767
1418.000000, 10.924582
1419.000000, 11.205052
1420.000000, 11.130351
1421.000000, 10.939495
1422.000000, 11.074295
1423.000000, 11.499775
1424.000000, 11.874054
1425.000000, 11.679384
1426.000000, 11.339067
1427.000000, 11.153196
1428.000000, 11.191544
1429.000000, 11.237822
1430.000000, 11.332818
1431.000000, 11.509189
1432.000000, 11.641821
1433.000000, 11.650861
1434.000000, 11.645159
1435.000000, 11.733823
1436.000000, 11.911035
1437.000000, 12.139557
1438.000000, 12.232042
1439.000000, 12.026212
1440.000000, 11.776529
1441.000000, 11.630215
1442.000000, 11.705172
1443.000000, 11.849076
1444.000000, 12.194711
1445.000000, 12.506125
1446.000000, 12.555004
1447.000000, 12.136481
1448.000000, 11.883389
1449.000000, 11.968076
1450.000000, 12.308885
1451.000000, 12.489638
1452.000000, 12.496245
1453.000000, 12.526345
1454.000000, 12.658234
1455.000000, 12.873470
1456.000000, 13.023065
1457.000000, 12.860782
1458.000000, 12.660410
1459.000000, 12.606649
1460.000000, 12.812304
1461.000000, 12.914407
1462.000000, 12.773165
1463.000000, 12.669986
1464.000000, 12.688443
1465.000000, 12.905940
1466.000000, 12.955477
1467.000000, 12.680441
1468.000000, 12.397126
1469.000000, 12.306509
1470.000000, 12.852524
1471.000000, 13.388317
1472.000000, 13.818797
1473.000000, 13.777913
1474.000000, 13.357743
1475.000000, 13.000759
1476.000000, 12.772447
1477.000000, 12.869379
1478.000000, 12.926476
1479.000000, 13.342478
1480.000000, 13.792660
1481.000000, 14.230979
1482.000000, 14.138376
1483.000000, 13.821240
1484.000000, 13.501799
1485.000000, 13.362818
1486.000000, 13.446661
1487.000000, 13.475813
1488.000000, 13.481018
1489.000000, 13.465003
1490.000000, 13.510581
1491.000000, 13.558162
1492.000000, 13.600789
1493.000000, 13.713390
1494.000000, 13.817016
1495.000000, 14.020263
1496.000000, 14.180748
1497.000000, 14.376401
1498.000000, 14.395781
1499.000000, 14.149933
1500.000000, 13.861239
1501.000000, 13.728174
1502.000000, 13.840241
1503.000000, 14.048307
1504.000000, 14.221836
1505.000000, 14.503327
1506.000000, 14.579693
1507.000000, 14.392697
1508.000000, 14.154366
1509.000000, 14.093941
1510.000000, 14.246880
1511.000000, 14.411443
1512.000000, 14.559745
1513.000000, 14.709552
1514.000000, 14.526780
1515.000000, 14.362333
1516.000000, 14.267184
1517.000000, 14.454089
1518.000000, 14.699770
1519.000000, 14.906724
1520.000000, 14.979180
1521.000000, 14.763462
1522.000000, 14.553613
1523.000000, 14.492933
1524.000000, 14.607724
1525.000000, 14.729113
1526.000000, 14.854514
1527.000000, 15.039059
1528.000000, 15.093743
1529.000000, 14.842224
1530.000000, 14.613831
1531.000000, 14.510760
1532.000000, 14.642559
1533.000000, 14.755337
1534.000000, 14.878262
1535.000000, 15.066482
1536.000000, 15.222194
1537.000000, 15.371348
1538.000000, 15.384211
1539.000000, 15.179207
1540.000000, 14.952831
1541.000000, 14.840186
1542.000000, 14.951597
1543.000000, 15.026274
1544.000000, 15.142605
1545.000000, 15.265065
1546.000000, 15.456525
1547.000000, 15.563792
1548.000000, 15.509027
1549.000000, 15.263190
1550.000000, 15.024607
1551.000000, 14.905302
1552.000000, 14.983620
1553.000000, 15.186346
1554.000000, 15.449164
1555.000000, 15.738318
1556.000000, 15.752246
1557.000000, 15.488277
1558.000000, 15.158143
1559.000000, 15.071264
1560.000000, 15.221270
1561.000000, 15.419642
1562.000000, 15.621342
1563.000000, 15.880132
1564.000000, 15.984380
1565.000000, 15.783520
1566.000000, 15.531300
1567.000000, 15.460822
1568.000000, 15.668668
1569.000000, 15.871096
1570.000000, 15.839742
1571.000000, 15.555079
1572.000000, 15.328509
1573.000000, 15.275662
1574.000000, 15.514895
1575.000000, 15.723037
1576.000000, 15.889801
1577.000000, 15.838671
1578.000000, 15.588088
1579.000000, 15.421419
1580.000000, 15.349036
1581.000000, 15.466374
1582.000000, 15.607401
1583.000000, 15.817021
1584.000000, 16.018312
1585.000000, 16.083788
1586.000000, 16.017228
1587.000000, 15.771108
1588.000000, 15.560568
1589.000000, 15.425322
1590.000000, 15.431185
1591.000000, 15.431060
1592.000000, 15.489763
1593.000000, 15.600105
1594.000000, 15.716928
1595.000000, 15.781022
1596.000000, 15.786823
1597.000000, 15.845317
1598.000000, 15.925371
1599.000000, 15.979373
1600.000000, 16.005799
1601.000000, 16.057574
1602.000000, 16.173981
1603.000000, 16.311532
1604.000000, 16.435024
1605.000000, 16.544691
1606.000000, 16.611341
1607.000000, 16.546226
1608.000000, 16.233995
1609.000000, 15.907671
1610.000000, 15.727422
1611.000000, 15.765280
1612.000000, 15.851254
1613.000000, 15.940229
1614.000000, 16.002956
1615.000000, 16.008859
1616.000000, 15.982816
1617.000000, 15.975850
1618.000000, 15.996178
1619.000000, 16.048838
1620.000000, 16.145345
1621.000000, 16.294283
1622.000000, 16.413932
1623.000000, 16.355608
1624.000000, 16.117490
1625.000000, 15.926226
1626.000000, 15.880351
1627.000000, 15.989160
1628.000000, 16.095944
1629.000000, 16.260776
1630.000000, 16.367172
1631.000000, 16.259627
1632.000000, 15.984998
1633.000000, 15.818026
1634.000000, 15.872843
1635.000000, 16.066326
1636.000000, 16.247919
1637.000000, 16.368530
1638.000000, 16.282286
1639.000000, 16.033929
1640.000000, 15.853500
1641.000000, 15.918654
1642.000000, 16.153834
1643.000000, 16.349045
1644.000000, 16.325821
1645.000000, 16.066553
1646.000000, 15.783954
1647.000000, 15.729203
1648.000000, 15.915096
1649.000000, 16.130426
1650.000000, 16.334074
1651.000000, 16.460204
1652.000000, 16.356328
1653.000000, 16.063808
1654.000000, 15.816817
1655.000000, 15.773635
1656.000000, 15.888421
1657.000000, 16.038950
1658.000000, 16.253145
1659.000000, 16.468512
1660.000000, 16.630821
1661.000000, 16.777120
1662.000000, 16.904814
1663.000000, 16.851525
1664.000000, 16.580950
1665.000000, 16.285129
1666.000000, 16.220827
1667.000000, 16.453990
1668.000000, 16.792090
1669.000000, 16.895446
1670.000000, 16.587504
1671.000000, 16.116367
1672.000000, 15.809824
1673.000000, 15.783207
1674.000000, 15.865403
1675.000000, 15.991338
1676.000000, 16.132059
1677.000000, 16.295198
1678.000000, 16.386914
1679.000000, 16.260930
1680.000000, 16.004299
1681.000000, 15.748955
1682.000000, 15.722786
1683.000000, 15.817712
1684.000000, 15.917385
1685.000000, 16.009196
1686.000000, 16.148933
1687.000000, 16.373929
1688.000000, 16.534431
1689.000000, 16.377512
1690.000000, 16.063807
1691.000000, 15.826513
1692.000000, 15.854670
1693.000000, 16.004033
1694.000000, 16.123317
1695.000000, 16.209475
1696.000000, 16.271749
1697.000000, 16.365312
1698.000000, 16.396373
1699.000000, 16.203944
1700.000000, 15.876681
1701.000000, 15.605899
1702.000000, 15.612309
1703.000000, 15.752156
1704.000000, 15.885078
1705.000000, 15.897502
1706.000000, 15.882889
1707.000000, 15.907691
1708.000000, 15.995989
1709.000000, 16.107969
1710.000000, 16.192171
1711.000000, 16.325960
1712.000000, 16.497634
1713.000000, 16.613713
1714.000000, 16.440623
1715.000000, 16.113872
1716.000000, 15.824927
1717.000000, 15.788725
1718.000000, 15.831538
1719.000000, 15.860996
1720.000000, 15.926224
1721.000000, 16.015921
1722.000000, 16.104075
1723.000000, 16.100918
1724.000000, 16.105719
1725.000000, 16.185006
1726.000000, 16.339956
1727.000000, 16.509123
1728.000000, 16.587103
1729.000000, 16.375865
1730.000000, 16.091394
1731.000000, 15.858307
1732.000000, 15.840268
1733.000000, 15.842444
1734.000000, 15.841754
1735.000000, 15.851522
1736.000000, 15.849628
1737.000000, 15.876014
1738.000000, 15.950247
1739.000000, 16.028379
1740.000000, 16.135133
1741.000000, 16.229597
1742.000000, 16.347237
1743.000000, 16.438367
1744.000000, 16.579886
1745.000000, 16.644604
1746.000000, 16.399892
1747.000000, 16.075802
1748.000000, 15.838652
1749.000000, 15.843499
1750.000000, 15.868427
1751.000000, 15.915881
1752.000000, 15.969559
1753.000000, 16.008750
1754.000000, 16.046065
1755.000000, 16.118777
1756.000000, 16.218707
1757.000000, 16.260696
1758.000000, 16.382048
1759.000000, 16.488935
1760.000000, 16.649996
1761.000000, 16.706334
1762.000000, 16.488672
1763.000000, 16.167095
1764.000000, 15.855752
1765.000000, 15.823695
1766.000000, 15.847682
1767.000000, 15.871548
1768.000000, 15.869334
1769.000000, 15.879902
1770.000000, 15.863849
1771.000000, 15.782728
1772.000000, 15.703531
1773.000000, 15.688359
1774.000000, 15.709875
1775.000000, 15.701262
1776.000000, 15.691986
1777.000000, 15.870514
1778.000000, 16.122960
1779.000000, 16.329621
1780.000000, 16.527592
1781.000000, 16.767873
1782.000000, 16.916568
1783.000000, 16.802309
1784.000000, 16.597228
1785.000000, 16.621277
1786.000000, 16.742738
1787.000000, 16.765701
1788.000000, 16.561567
1789.000000, 16.336460
1790.000000, 16.292593
1791.000000, 16.331786
1792.000000, 16.467689
1793.000000, 16.626639
1794.000000, 16.822084
1795.000000, 17.116114
1796.000000, 17.243198
1797.000000, 17.000294
1798.000000, 16.484952
1799.000000, 16.160352
1800.000000, 16.324366
1801.000000, 16.653108
1802.000000, 16.735653
1803.000000, 16.518027
1804.000000, 16.385465
1805.000000, 16.532871
1806.000000, 16.894646
1807.000000, 17.019988
1808.000000, 16.775911
1809.000000, 16.424678
1810.000000, 16.334248
1811.000000, 16.229837
1812.000000, 16.337424
1813.000000, 16.516535
1814.000000, 17.284006
1815.000000, 17.897707
1816.000000, 17.471003
1817.000000, 15.914256
1818.000000, 14.334300
1819.000000, 14.154912
1820.000000, 15.977636
1821.000000, 18.330393
1822.000000, 19.546431
1823.000000, 18.713663
1824.000000, 17.042543
1825.000000, 15.819991
1826.000000, 15.333646
1827.000000, 15.341377
1828.000000, 15.866736
1829.000000, 17.043267
1830.000000, 18.452484
1831.000000, 18.829737
1832.000000, 18.021110
1833.000000, 16.442833
1834.000000, 15.603666
1835.000000, 15.490081
1836.000000, 15.494365
1837.000000, 14.917321
1838.000000, 14.306789
1839.000000, 14.925798
1840.000000, 16.002439
1841.000000, 16.989959
1842.000000, 16.989959
1843.000000, 16.989959
1844.000000, 17.535183
1845.000000, 17.535183
1846.000000, 17.535183
1847.000000, 16.989959
1848.000000, 18.410736
1849.000000, 18.968598
1850.000000, 19.526460
1851.000000, 18.663544
1852.000000, 17.818258
1853.000000, 17.776408
1854.000000, 17.712392
1855.000000, 17.970738
1856.000000, 17.948573
1857.000000, 17.978727
1858.000000, 17.724864
1859.000000, 17.755019
1860.000000, 18.391227
1861.000000, 20.159001
1862.000000, 20.826682
1863.000000, 20.094571
1864.000000, 19.339225
1865.000000, 18.201832
1866.000000, 17.828023
1867.000000, 16.263580
1868.000000, 16.938779
1869.000000, 17.613978
1870.000000, 19.178422
1871.000000, 19.178422
1872.000000, 18.503223
1873.000000, 18.040642
1874.000000, 17.583570
1875.000000, 18.258769
1876.000000, 19.134018
1877.000000, 19.899669
1878.000000, 19.687624
1879.000000, 18.450916
1880.000000, 17.137262
1881.000000, 16.597481
1882.000000, 17.047596
1883.000000, 17.860967
1884.000000, 18.400745
1885.000000, 18.552436
1886.000000, 18.324490
1887.000000, 17.488061
1888.000000, 16.568122
1889.000000, 16.005784
1890.000000, 16.433761
1891.000000, 17.766404
1892.000000, 19.294137
1893.000000, 20.144050
1894.000000, 19.578815
1895.000000, 17.871697
1896.000000, 16.185211
1897.000000, 15.441852
1898.000000, 16.195972
1899.000000, 17.634629
1900.000000, 18.558168
1901.000000, 18.298052
1902.000000, 18.121883
1903.000000, 18.121883
1904.000000, 18.594668
1905.000000, 19.071328
1906.000000, 20.048171
1907.000000, 20.737857
1908.000000, 20.021199
1909.000000, 18.182545
1910.000000, 16.529326
1911.000000, 16.230453
1912.000000, 16.981189
1913.000000, 18.528879
1914.000000, 19.738079
1915.000000, 19.969430
1916.000000, 18.723288
1917.000000, 16.796030
1918.000000, 15.506275
1919.000000, 15.486333
1920.000000, 16.687133
1921.000000, 18.029673
1922.000000, 18.755968
1923.000000, 18.608236
1924.000000, 18.041269
1925.000000, 17.542173
1926.000000, 17.367507
1927.000000, 17.648911
1928.000000, 18.148843
1929.000000, 18.522746
1930.000000, 18.599455
1931.000000, 18.437525
1932.000000, 18.358586
1933.000000, 18.304116
1934.000000, 18.203491
1935.000000, 18.180609
1936.000000, 18.086457
1937.000000, 18.035599
1938.000000, 18.134806
1939.000000, 18.516669
1940.000000, 19.036884
1941.000000, 19.088969
1942.000000, 18.740590
1943.000000, 18.443499
1944.000000, 18.294266
1945.000000, 18.481104
1946.000000, 18.672693
1947.000000, 18.897514
1948.000000, 18.835304
1949.000000, 18.672152
1950.000000, 18.566678
1951.000000, 18.504906
1952.000000, 18.466714
1953.000000, 18.599316
1954.000000, 18.837916
1955.000000, 18.828101
1956.000000, 18.586103
1957.000000, 18.624286
1958.000000, 18.979037
1959.000000, 19.231389
1960.000000, 19.050221
1961.000000, 18.769972
1962.000000, 18.768447
1963.000000, 18.891432
1964.000000, 19.070874
1965.000000, 18.989593
1966.000000, 19.069751
1967.000000, 19.184830
1968.000000, 19.305346
1969.000000, 19.203560
1970.000000, 18.953781
1971.000000, 18.945575
1972.000000, 19.329143
1973.000000, 19.669390
1974.000000, 19.828169
1975.000000, 19.657300
1976.000000, 19.611424
1977.000000, 19.598848
1978.000000, 19.524695
1979.000000, 19.430409
1980.000000, 19.320047
1981.000000, 19.289541
1982.000000, 19.252520
1983.000000, 19.259250
1984.000000, 19.282158
1985.000000, 19.310003
1986.000000, 19.378719
1987.000000, 19.492990
1988.000000, 19.661699
1989.000000, 19.830890
1990.000000, 19.965524
1991.000000, 19.851366
1992.000000, 19.542482
1993.000000, 19.280471
1994.000000, 19.321858
1995.000000, 19.581614
1996.000000, 19.885193
1997.000000, 20.127274
1998.000000, 20.109429
1999.000000, 19.823491
2000.065834, 19.483821
2009.942668, 19.341948
2020.098566, 19.547297
2029.969298, 19.738764
2039.837000, 20.074807
2049.983460, 20.183886
2059.844971, 20.407642
2069.985031, 20.620350
2079.840289, 20.943251
2089.973887, 21.217894
2099.822832, 21.460627
2109.949906, 21.638661
2119.792477, 21.874661
2129.912964, 22.233301
2140.030088, 22.552273
2149.862941, 22.913905
2159.973384, 23.015633
2169.799712, 23.229156
2179.903413, 23.405708
2190.003671, 23.708047
2199.820052, 23.944329
2209.913475, 24.119839
2219.723179, 24.276049
2229.809704, 24.401392
2239.892708, 24.686881
2249.692237, 25.017286
2259.768250, 25.501090
2269.840694, 25.816134
2279.909553, 26.165728
2289.695271, 26.444765
2299.757015, 26.748840
2309.815127, 27.045892
2319.869592, 27.284567
2329.641254, 27.634623
2339.688478, 27.843286
2349.732008, 28.080736
2359.771828, 28.244865
2369.807920, 28.387567
2379.840271, 28.699999
2389.590342, 28.842991
2399.615266, 28.977108
2409.636400, 29.046333
2419.653730, 29.223785
2429.667238, 29.524255
2439.676909, 29.749480
2449.682728, 30.038080
2459.684679, 30.235551
2469.682745, 30.435396
2479.676911, 30.620015
2489.667162, 30.786069
2499.653481, 30.925529
2509.635853, 31.052866
2519.614261, 31.176211
2529.588691, 31.276428
2539.559127, 31.473138
2549.525552, 31.639067
2559.487951, 31.908459
2569.722871, 32.002128
2579.677058, 32.198201
2589.627171, 32.411293
2599.573195, 32.508910
2609.515113, 32.687511
2619.452911, 32.754677
2629.662448, 32.896682
2639.591842, 33.086031
2649.517067, 33.319512
2659.438109, 33.501195
2669.630358, 33.415802
2679.542867, 33.236118
2689.451145, 33.151195
2699.630227, 32.812401
2709.529877, 31.932644
2719.425248, 30.183090
2729.591015, 27.022315
2739.477662, 22.993730
2749.359982, 18.336846
2759.512287, 14.538105
2769.385788, 11.337328
2779.528995, 9.133219
2789.393611, 7.494988
2799.527654, 6.653526
2809.383323, 6.240280
2819.508136, 6.019983
2829.354792, 5.788768
2839.470310, 5.545669
2849.307890, 5.486079
2859.414046, 5.503871
2869.515434, 5.574182
2879.339216, 5.652135
2889.431143, 5.794930
2899.245690, 6.163587
2909.328092, 6.442969
2919.405640, 6.683279
2929.206149, 6.689366
2939.274073, 6.797728
2949.337095, 6.986224
2959.395197, 7.236548
2969.176720, 7.521955
2979.225066, 7.683823
2989.268442, 8.124422
2999.306833, 8.247699
3009.340220, 8.436766
3019.368587, 8.495485
3029.391918, 8.874128
3039.139497, 9.329834
3049.152842, 9.585052
3059.161100, 9.857499
3069.164256, 10.017204
3079.162292, 10.136480
3089.155191, 10.412467
3099.142938, 10.722635
3109.125515, 11.172245
3119.102905, 11.430611
3129.075093, 11.816846
3139.311366, 12.149615
3149.272956, 12.495206
3159.229293, 12.813502
3169.180360, 13.218520
3179.126141, 13.717351
3189.066618, 13.974750
3199.270220, 14.286859
3209.199897, 14.531504
3219.124221, 14.891676
3229.043176, 15.156823
3239.224603, 15.394691
3249.132622, 15.755751
3259.035221, 16.072305
3269.199799, 16.277402
3279.091361, 16.347846
3288.977454, 16.455044
3299.125027, 16.666631
3308.999981, 16.892923
3319.136081, 16.872196
3328.999829, 16.745446
3339.124385, 16.526533
3348.976861, 16.272009
3359.089804, 15.808980
3368.930939, 15.174688
3379.032200, 14.724987
3389.127517, 14.284386
3398.951437, 13.886866
3409.034967, 13.185692
3419.112499, 12.267443
3428.919052, 11.203133
3438.984693, 10.329596
3449.044284, 9.518584
3458.833318, 8.710394
3468.880914, 8.015658
3478.922407, 7.349079
3488.957779, 6.763908
3498.987012, 5.929200
3509.010089, 5.207410
3519.026992, 4.631503
3529.037703, 4.254172
3538.779008, 3.791385
3548.777448, 3.244188
3558.769643, 2.955335
3568.755577, 2.819620
3578.997769, 2.703337
3588.970961, 2.703337
3598.937838, 2.523424
3608.898383, 2.379556
3618.852578, 2.263431
3628.800407, 2.166247
3638.741850, 2.068268
3648.938253, 1.977930
3658.866705, 1.916720
3668.788719, 1.846196
3678.704279, 1.788990
3688.874043, 1.739439
3698.776469, 1.713354
3708.672387, 1.702992
3718.821938, 1.701911
3728.704616, 1.728397
3738.840542, 1.754338
3748.709907, 1.786172
3758.832135, 1.796946
3768.688117, 1.811629
3778.796573, 1.832028
3788.639101, 1.887653
3798.733711, 1.958984
3808.821282, 2.028941
3818.643407, 2.103823
3828.717023, 2.184895
3838.783543, 2.283352
3848.585104, 2.372790
3858.637559, 2.450336
3868.682864, 2.525927
3878.720999, 2.600042
3888.751945, 2.682288
3898.518755, 2.747902
3908.535455, 2.797982
3918.544910, 2.837897
3928.547104, 2.869873
3938.542016, 2.901058
3948.529630, 2.924087
3958.509925, 2.948828
3968.482884, 2.973409
3978.703920, 2.989507
3988.661962, 2.997020
3998.612612, 2.992190
4008.555852, 2.984139
4018.491662, 2.967532
4028.674500, 2.950349
4038.595205, 2.937617
4048.508426, 2.926730
4058.414143, 2.921222
4068.566040, 2.914679
4078.456503, 2.914333
4088.592715, 2.909394
4098.467848, 2.902404
4108.588299, 2.893701
4118.448027, 2.889454
4128.552639, 2.889265
4138.396887, 2.888959
4148.485584, 2.889563
4158.566193, 2.890103
4168.386981, 2.897649
4178.451560, 2.905216
4188.507992, 2.908297
4198.305151, 2.905860
4208.345437, 2.903646
4218.377519, 2.904369
4228.401377, 2.913762
4238.416991, 2.906589
4248.424343, 2.900301
4258.423411, 2.875721
4268.414178, 2.858958
4278.396623, 2.839747
4288.370728, 2.829127
4298.336471, 2.820296
4308.293836, 2.811519
4318.242800, 2.803359
4328.431752, 2.790153
4338.363649, 2.774332
4348.287088, 2.755460
4358.202050, 2.740321
4368.356068, 2.727752
4378.253805, 2.713105
4388.390126, 2.699840
4398.270558, 2.683909
4408.389101, 2.668285
4418.252149, 2.651742
4428.352834, 2.632892
4438.198419, 2.613278
4448.281165, 2.594739
4458.354799, 2.577142
4468.173935, 2.560061
4478.229508, 2.538341
4488.275909, 2.515981
4498.313117, 2.492757
4508.096635, 2.471983
4518.115621, 2.453428
4528.125352, 2.432348
4538.125809, 2.409696
4548.116970, 2.385311
4558.098816, 2.363758
4568.071325, 2.344307
4578.277365, 2.325565
4588.230912, 2.305437
4598.175061, 2.283478
4608.109792, 2.263183
4618.035085, 2.242568
4628.192649, 2.223864
4638.098772, 2.205725
4647.995395, 2.187827
4658.123528, 2.167823
4668.000857, 2.147943
4678.109183, 2.129005
4687.967136, 2.111219
4698.055570, 2.093653
4708.133906, 2.076542
4717.962521, 2.059057
4728.020838, 2.041199
4738.068993, 2.024012
4748.106964, 2.007932
4758.134730, 1.992364
4767.913874, 1.978202
4777.921408, 1.963029
4787.918673, 1.948784
4797.905646, 1.934847
4807.882307, 1.919117
4818.085802, 1.906870
4828.041526, 1.892200
4837.986874, 1.880150
4847.921823, 1.869672
4857.846351, 1.856786
4867.996361, 1.843244
4877.899737, 1.829478
4888.028045, 1.818084
4897.910179, 1.807688
4908.016697, 1.795888
4917.877504, 1.783281
4927.962141, 1.770654
4937.801534, 1.758399
4947.864203, 1.746488
4957.915724, 1.734178
4967.956075, 1.722052
4977.985234, 1.711951
4987.770330, 1.701908
4997.777298, 1.691170
5007.776688, 1.681400
5017.595804, 1.670305
5028.169082, 1.659518
5037.986050, 1.648917
5047.801980, 1.639231
5057.616872, 1.631448
5068.185590, 1.622114
5077.998316, 1.612156
5087.809996, 1.603231
5097.620628, 1.592956
5107.430211, 1.584563
5117.993201, 1.575002
5127.800597, 1.565539
5137.606938, 1.557835
5147.412220, 1.547992
5157.970569, 1.538386
5167.773648, 1.530453
5177.575662, 1.522049
5187.376611, 1.514029
5197.930283, 1.505174
5207.729011, 1.496540
5217.526666, 1.488491
5227.323247, 1.481551
5237.872207, 1.474034
5247.666549, 1.465381
5257.459812, 1.457361
5268.005191, 1.448763
5277.796202, 1.440427
5287.586127, 1.432189
5297.374963, 1.424047
5307.915566, 1.415998
5317.702134, 1.408042
5327.487607, 1.400177
5337.271982, 1.392402
5347.807773, 1.384716
5357.589864, 1.377119
5367.370852, 1.369607
5377.902987, 1.362179
5387.681677, 1.354832
5397.459258, 1.347566
5407.235727, 1.340379
5417.762987, 1.333270
5427.537141, 1.326239
5437.310177, 1.319283
5447.833734, 1.312400
5457.604442, 1.305588
5467.374028, 1.298846
5477.142487, 1.292173
5487.661104, 1.285569
5497.427219, 1.279033
5507.192201, 1.272564
5517.707068, 1.266162
5527.469693, 1.259825
5537.231179, 1.253552
5547.742274, 1.247343
5557.501390, 1.241197
5567.259362, 1.235113
5577.766665, 1.229090
5587.522253, 1.223127
5597.276691, 1.217223
5607.780182, 1.211374
5617.532223, 1.205578
5627.283108, 1.199834
5637.032835, 1.194145
5647.531242, 1.188511
5657.278555, 1.182931
5667.024703, 1.177403
5677.519250, 1.171926
5687.262972, 1.166500
5697.005523, 1.161127
5707.496189, 1.155803
5717.236302, 1.150527
5726.975237, 1.145298
5737.462002, 1.140115
5747.198485, 1.134980
5757.682605, 1.129894
5767.416629, 1.124856
5777.149464, 1.119864
5787.629649, 1.114919
5797.360012, 1.110021
5807.089180, 1.105170
5817.565409, 1.100365
5827.292092, 1.095603
5837.017575, 1.090881
5847.489828, 1.086200
5857.212813, 1.081560
5866.934591, 1.076961
5877.402847, 1.072401
5887.122114, 1.067880
5897.587661, 1.063398
5907.304408, 1.058953
5917.019938, 1.054543
5927.481454, 1.050169
5937.194452, 1.045830
5946.906226, 1.041525
5957.363691, 1.037255
5967.072921, 1.033017
5977.527640, 1.028812
5987.234315, 1.024641
5996.939757, 1.020503
6007.390390, 1.016396
6017.093265, 1.012320
6026.794901, 1.008276
6037.241429, 1.004267
6046.940485, 1.000291
6057.384230, 0.996346
6067.080698, 0.992433
6076.775917, 0.988552
6087.215522, 0.984707
6096.908139, 0.980894
6107.344938, 0.977113
6117.034946, 0.973361
6126.723694, 0.969638
6137.156319, 0.965944
6146.842444, 0.962282
6157.272241, 0.958648
6166.955735, 0.955044
6177.382693, 0.951468
6187.063548, 0.947919
6196.743128, 0.944397
6207.165865, 0.940900
6216.842793, 0.937428
6227.262668, 0.933981
6236.936935, 0.930560
6246.609918, 0.927163
6257.025537, 0.923791
6266.695846, 0.920442
6277.108582, 0.917116
6286.776208, 0.913813
6297.186050, 0.910534
6306.850986, 0.907279
6317.257926, 0.904046
6326.920162, 0.900837
6336.581095, 0.897652
6346.983717, 0.894492
6356.641938, 0.891353
6367.041635, 0.888234
6376.697135, 0.885135
6387.093897, 0.882057
6396.746668, 0.879002
6407.140486, 0.875969
6416.790518, 0.872958
6427.181383, 0.869967
6436.828669, 0.866997
6446.474630, 0.864047
6456.861103, 0.861118
6466.504304, 0.858208
6476.887800, 0.855318
6486.528234, 0.852448
6496.908745, 0.849599
6506.546402, 0.846770
6516.923919, 0.843960
6526.558791, 0.841171
6536.933304, 0.838402
6546.565382, 0.835654
6556.936882, 0.832926
6566.566159, 0.830219
6576.934637, 0.827533
6586.561102, 0.824867
6596.926549, 0.822216
6606.550195, 0.819582
6616.912601, 0.816962
6626.533420, 0.814357
6636.892776, 0.811766
6646.510758, 0.809189
6656.867055, 0.806626
6666.482193, 0.804077
6676.835422, 0.801540
6686.447706, 0.799017
6696.797857, 0.796510
6706.407280, 0.794020
6716.754344, 0.791546
6726.360896, 0.789088
6736.704865, 0.786646
6746.308538, 0.784220
6756.649402, 0.781808
6766.250188, 0.779413
6776.587937, 0.777034
6786.924068, 0.774671
6796.520453, 0.772321
6806.853456, 0.769983
6816.446931, 0.767659
6826.776797, 0.765349
6836.367355, 0.763052
6846.694074, 0.760767
6856.281707, 0.758494
6866.605270, 0.756233
6876.189968, 0.753986
6886.510366, 0.751753
6896.829120, 0.749532
6906.409345, 0.747324
6916.724921, 0.745127
6926.302190, 0.742941
6936.614577, 0.740767
6946.188882, 0.738605
6956.498072, 0.736456
6966.805601, 0.734318
6976.375388, 0.732193
6986.679706, 0.730079
6996.246507, 0.727977
7006.547605, 0.725886
7016.111412, 0.723807
7026.409280, 0.721740
7036.705470, 0.719684
7046.264714, 0.717640
7056.557661, 0.715608
7066.113889, 0.713589
7076.403584, 0.711582
7086.691589, 0.709588
7096.243221, 0.707605
7106.527959, 0.705633
7116.076554, 0.703672
7126.358018, 0.701722
7136.637779, 0.699784
7146.181746, 0.697856
7156.458218, 0.695939
7165.999126, 0.694033
7176.272300, 0.692138
7186.543760, 0.690254
7196.080008, 0.688380
7206.348156, 0.686517
7216.614582, 0.684667
7226.146150, 0.682828
7236.409251, 0.681000
7245.937725, 0.679184
7256.197491, 0.677378
7266.455524, 0.675584
7275.979286, 0.673801
7286.233970, 0.672028
7296.486914, 0.670266
7306.005944, 0.668512
7316.255525, 0.666769
7326.503358, 0.665034
7336.017637, 0.663307
7346.262094, 0.661588
7356.504797, 0.659878
7366.014304, 0.658177
7376.253616, 0.656484
7386.491167, 0.654800
7395.995884, 0.653125
7406.230030, 0.651458
7416.462408, 0.649798
7425.962315, 0.648147
7436.191274, 0.646505
7446.418458, 0.644872
7455.913536, 0.643248
7466.137287, 0.641634
7476.359256, 0.640027
7485.849485, 0.638428
7496.068008, 0.636835
7506.284741, 0.635250
7515.770101, 0.633674
7525.983375, 0.632106
7536.194850, 0.630547
7545.675324, 0.628997
7555.883326, 0.627454
7566.089524, 0.625920
7576.293916, 0.624393
7585.767802, 0.622874
7595.968701, 0.621363
7606.167786, 0.619861
7615.636739, 0.618369
7625.832319, 0.616885
7636.026078, 0.615409
7646.218013, 0.613939
7655.680318, 0.612476
7665.868729, 0.611020
7676.055310, 0.609571
7686.240057, 0.608126
7695.695679, 0.606689
7705.876884, 0.605260
7716.056248, 0.603838
7726.233770, 0.602424
7735.682674, 0.601018
7745.856636, 0.599618
7756.028747, 0.598224
7766.199006, 0.596837
7775.641157, 0.595455
7785.807837, 0.594080
7795.972657, 0.592711
7806.135616, 0.591349
7815.570980, 0.589994
7825.730341, 0.588646
7835.887833, 0.587304
7846.043454, 0.585968
7855.471995, 0.584639
7865.624000, 0.583318
7875.774127, 0.582003
7885.922372, 0.580695
7896.068734, 0.579392
7905.488668, 0.578096
7915.631391, 0.576805
7925.772224, 0.575519
7935.911164, 0.574239
7946.048209, 0.572963
7955.459480, 0.571693
7965.592863, 0.570429
7975.724343, 0.569171
7985.853919, 0.567919
7995.981587, 0.566674
8005.384141, 0.565434
8015.508125, 0.564200
8025.630194, 0.562970
8035.750346, 0.561744
8045.868580, 0.560524
8055.984892, 0.559309
8065.376887, 0.558099
8075.489487, 0.556895
8085.600158, 0.555695
8095.708897, 0.554501
8105.815704, 0.553311
8115.920574, 0.552127
8125.301933, 0.550949
8135.403063, 0.549776
8145.502251, 0.548609
8155.599493, 0.547447
8165.694787, 0.546288
8175.788131, 0.545134
8185.879523, 0.543984
8195.248351, 0.542839
8205.335970, 0.541699
8215.421630, 0.540563
8225.505327, 0.539432
8235.587061, 0.538307
8245.666827, 0.537188
8255.744624, 0.536074
8265.820450, 0.534964
8275.174806, 0.533859
8285.246822, 0.532758
8295.316860, 0.531662
8305.384917, 0.530572
8315.450990, 0.529486
8325.515077, 0.528405
8335.577176, 0.527328
8345.637284, 0.526256
8355.695399, 0.525189
8365.751519, 0.524125
8375.087555, 0.523067
8385.139819, 0.522014
8395.190081, 0.520966
8405.238338, 0.519923
8415.284587, 0.518885
8425.328827, 0.517851
8435.371055, 0.516821
8445.411268, 0.515795
8455.449464, 0.514772
8465.485641, 0.513753
8475.519796, 0.512738
8485.551927, 0.511727
8495.582031, 0.510720
8505.610107, 0.509715
8515.636151, 0.508713
8525.660162, 0.507715
8535.682136, 0.506720
8544.986430, 0.505730
8555.004471, 0.504744
8565.020468, 0.503762
8575.034421, 0.502784
8585.046325, 0.501811
8595.056179, 0.500843
8605.063981, 0.499878
8615.069727, 0.498918
8625.073416, 0.497963
8635.075045, 0.497012
8645.074612, 0.496065
8655.072114, 0.495120
8665.067549, 0.494179
8675.060915, 0.493242
8685.052209, 0.492308
8695.041429, 0.491378
8705.028573, 0.490450
8715.013637, 0.489526
8724.996620, 0.488606
8734.977519, 0.487692
8744.956333, 0.486783
8754.933058, 0.485878
8764.907692, 0.484976
8774.880232, 0.484079
8784.850677, 0.483185
8794.819025, 0.482297
8804.785271, 0.481413
8815.461059, 0.480533
8825.422948, 0.479659
8835.382728, 0.478788
8845.340399, 0.477922
8855.295957, 0.477059
8865.249401, 0.476201
8875.200727, 0.475347
8885.149933, 0.474496
8895.097018, 0.473647
8905.041978, 0.472802
8914.984812, 0.471959
8924.925517, 0.471120
8934.864090, 0.470284
8944.800529, 0.469451
8954.734832, 0.468620
8965.376355, 0.467791
8975.306225, 0.466965
8985.233952, 0.466143
8995.159534, 0.465324
9005.082967, 0.464506
9015.004249, 0.463691
9024.923378, 0.462879
9034.840353, 0.462070
9044.755169, 0.461264
9054.667825, 0.460460
9065.286129, 0.459658
9075.194303, 0.458861
9085.100310, 0.458066
9095.004147, 0.457276
9104.905813, 0.456488
9114.805303, 0.455703
9124.702617, 0.454921
9134.597752, 0.454142
9145.197262, 0.453368
9155.087875, 0.452597
9164.976302, 0.451829
9174.862540, 0.451064
9184.746587, 0.450302
9194.628441, 0.449542
9204.508098, 0.448785
9215.091006, 0.448030
9224.966108, 0.447277
9234.839006, 0.446527
9244.709699, 0.445777
9254.578185, 0.445027
9265.149109, 0.444280
9275.013013, 0.443534
9284.874702, 0.442792
9294.734174, 0.442052
9304.591426, 0.441315
9314.446456, 0.440581
9325.002949, 0.439849
9334.853368, 0.439120
9344.701558, 0.438394
9354.547517, 0.437671
9364.391241, 0.436951
9374.935607, 0.436233
9384.774696, 0.435518
9394.611544, 0.434806
9404.446148, 0.434096
9414.980732, 0.433388
9424.810682, 0.432682
9434.638380, 0.431978
9444.463825, 0.431275
9454.988585, 0.430573
9464.809356, 0.429873
9474.627866, 0.429175
9484.444114, 0.428479
9494.959008, 0.427787
9504.770561, 0.427097
9514.579844, 0.426410
9524.386855, 0.425725
9534.891842, 0.425044
9544.694139, 0.424365
9554.494156, 0.423691
9564.291891, 0.423020
9574.786929, 0.422352
9584.579930, 0.421686
9594.370643, 0.421021
9604.858149, 0.420356
9614.644112, 0.419691
9624.427779, 0.419028
9634.209147, 0.418367
9644.686632, 0.417706
9654.463232, 0.417048
9664.237526, 0.416390
9674.707423, 0.415735
9684.476934, 0.415083
9694.244132, 0.414434
9704.706417, 0.413787
9714.468817, 0.413141
9724.228897, 0.412497
9734.683548, 0.411855
9744.438814, 0.411217
9754.191753, 0.410581
9764.638746, 0.409947
9774.386857, 0.409316
9784.132634, 0.408688
9794.571945, 0.408061
9804.312879, 0.407436
9814.746996, 0.406812
9824.483078, 0.406191
9834.216813, 0.405573
9844.643209, 0.404955
9854.372076, 0.404339
9864.098590, 0.403723
9874.517241, 0.403110
9884.238873, 0.402500
9894.652288, 0.401893
9904.369027, 0.401288
9914.083402, 0.400686
9924.489032, 0.400087
9934.198499, 0.399490
9944.598867, 0.398894
9954.303417, 0.398300
9964.005590, 0.397708
9974.398135, 0.397118
9984.095376, 0.396529
9994.482631, 0.395943
10004.174930, 0.395359
10014.556890, 0.394777
10024.244230, 0.394197
10033.929190, 0.393619
10044.303260, 0.393044
10053.983250, 0.392471
10064.352000, 0.391902
10074.027010, 0.391333
10084.390430, 0.390764
10094.060450, 0.390196
10104.418520, 0.389629
10114.083550, 0.389063
10124.436250, 0.388499
10134.096280, 0.387936
10144.443620, 0.387375
10154.098620, 0.386817
10164.440580, 0.386261
10174.090560, 0.385708
10184.427130, 0.385155
10194.072080, 0.384603
10204.403250, 0.384052
10214.043150, 0.383501
10224.368910, 0.382951
10234.003750, 0.382401
10244.324090, 0.381853
10253.953860, 0.381306
10264.268770, 0.380762
10273.893470, 0.380221
10284.202930, 0.379680
10293.822550, 0.379139
10304.126560, 0.378601
10313.741080, 0.378066
10324.039630, 0.377536
10334.335340, 0.377008
10343.942110, 0.376483
10354.232340, 0.375960
10363.834000, 0.375439
10374.118740, 0.374920
10383.715270, 0.374402
10393.994510, 0.373884
10404.270900, 0.373368
10413.859620, 0.372854
10424.130500, 0.372342
10433.714070, 0.371832
10443.979410, 0.371324
10454.241900, 0.370817
10463.817630, 0.370312
10474.074570, 0.369808
10483.645120, 0.369304
10493.896500, 0.368800
10504.145010, 0.368297
10513.707690, 0.367796
10523.950630, 0.367299
10534.190680, 0.366806
10543.745450, 0.366315
10553.979920, 0.365826
10564.211490, 0.365339
10573.758350, 0.364853
10583.984320, 0.364368
10593.525940, 0.363884
10603.746300, 0.363400
10613.963750, 0.362917
10624.178290, 0.362437
10633.709240, 0.361958
10643.918150, 0.361481
10654.124140, 0.361009
10663.647090, 0.360538
10673.847430, 0.360071
10684.044850, 0.359603
10693.559790, 0.359137
10703.751540, 0.358670
10713.940350, 0.358203
10723.447260, 0.357738
10733.630400, 0.357273
10743.810590, 0.356810
10753.987830, 0.356348
10763.483930, 0.355889
10773.655480, 0.355431
10783.824070, 0.354977
10793.989700, 0.354526
10803.474950, 0.354078
10813.634860, 0.353633
10823.791800, 0.353190
10833.945780, 0.352749
10843.420140, 0.352310
10853.568380, 0.351873
10863.713630, 0.351438
10873.855910, 0.351006
10883.319350, 0.350575
10893.455860, 0.350146
10903.589380, 0.349717
10913.719920, 0.349289
10923.847460, 0.348862
10933.297140, 0.348436
10943.418890, 0.348009
10953.537640, 0.347582
10963.653390, 0.347154
10973.766130, 0.346726
10983.875860, 0.346299
10993.308900, 0.345873
11003.412810, 0.345448
11013.513700, 0.345024
11023.611570, 0.344602
11033.706420, 0.344183
11043.798250, 0.343765
11053.214560, 0.343349
11063.300530, 0.342935
11073.383460, 0.342522
11083.463370, 0.342111
11093.540230, 0.341701
11103.614050, 0.341292
11113.684830, 0.340886
11123.752560, 0.340482
11133.146350, 0.340081
11143.208190, 0.339681
11153.266960, 0.339281
11163.322680, 0.338882
11173.375340, 0.338484
11183.424940, 0.338089
11193.471470, 0.337698
11203.514930, 0.337309
11213.555320, 0.336921
11223.592630, 0.336533
11233.626870, 0.336146
11243.658030, 0.335759
11253.686100, 0.335373
11263.711090, 0.334987
11273.064960, 0.334602
11283.083980, 0.334218
11293.099910, 0.333835
11303.112740, 0.333452
11313.122470, 0.333070
11323.129090, 0.332688
11333.132620, 0.332305
11343.133030, 0.331923
11353.130340, 0.331543
11363.124530, 0.331165
11373.115610, 0.330788
11383.103580, 0.330412
11393.088420, 0.330034
11403.070130, 0.329655
11413.048720, 0.329277
11423.024180, 0.328898
11432.996510, 0.328520
11442.965710, 0.328142
11452.931770, 0.327762
11463.558770, 0.327380
11473.518340, 0.326998
11483.474760, 0.326617
11493.428030, 0.326238
11503.378150, 0.325862
11513.325120, 0.325488
11523.268930, 0.325117
11533.209580, 0.324747
11543.147070, 0.324379
11553.081400, 0.324011
11563.012560, 0.323641
11572.940550, 0.323274
11582.865360, 0.322909
11593.448330, 0.322545
11603.366580, 0.322179
11613.281650, 0.321812
11623.193530, 0.321448
11633.102230, 0.321087
11643.007740, 0.320727
11652.910060, 0.320367
11662.809180, 0.320007
11673.364720, 0.319648
11683.257230, 0.319291
11693.146540, 0.318939
11703.032640, 0.318591
11712.915540, 0.318247
11722.795220, 0.317905
11733.330010, 0.317564
11743.203040, 0.317225
11753.072860, 0.316887
11762.939460, 0.316549
11772.802830, 0.316210
11783.320200, 0.315873
11793.176900, 0.315537
11803.030360, 0.315204
11812.880590, 0.314870
11822.727580, 0.314537
11833.227470, 0.314203
11843.067760, 0.313866
11852.904800, 0.313526
11862.738590, 0.313184
11873.224390, 0.312842
11883.051450, 0.312501
11892.875260, 0.312161
11902.695810, 0.311820
11913.167470, 0.311480
11922.981270, 0.311144
11932.791810, 0.310810
11942.599070, 0.310477
11953.056540, 0.310143
11962.857040, 0.309808
11972.654250, 0.309474
11983.100990, 0.309141
11992.891420, 0.308811
12002.678560, 0.308481
12013.114550, 0.308151
12022.894880, 0.307818
12032.671920, 0.307485
12043.097130, 0.307152
12052.867350, 0.306820
12062.634260, 0.306489
12073.048660, 0.306158
12082.808740, 0.305830
12092.565500, 0.305507
12102.969060, 0.305190
12112.718970, 0.304876
12122.465560, 0.304562
12132.858260, 0.304250
12142.597980, 0.303941
12152.983340, 0.303637
12162.716180, 0.303334
12172.445680, 0.303031
12182.820130, 0.302726
12192.542730, 0.302418
12202.909820, 0.302108
12212.625510, 0.301798
12222.985230, 0.301489
12232.693990, 0.301181
12242.399410, 0.300874
12252.748150, 0.300569
12262.446620, 0.300263
12272.787960, 0.299956
12282.479480, 0.299649
12292.813390, 0.299344
12302.497960, 0.299042
12312.824440, 0.298743
12322.502030, 0.298448
12332.821060, 0.298157
12342.491670, 0.297871
12352.803250, 0.297587
12362.466860, 0.297303
12372.770970, 0.297017
12382.427570, 0.296730
12392.724200, 0.296445
12402.373780, 0.296161
12412.662920, 0.295878
12422.305470, 0.295593
12432.587110, 0.295310
12442.222620, 0.295031
12452.496730, 0.294756
12462.766970, 0.294483
12472.391780, 0.294207
12482.654480, 0.293929
12492.272220, 0.293652
12502.527380, 0.293376
12512.778630, 0.293099
12522.385630, 0.292820
12532.629320, 0.292541
12542.229220, 0.292263
12552.465330, 0.291989
12562.697530, 0.291717
12572.286650, 0.291447
12582.511250, 0.291178
12592.731920, 0.290914
12602.310240, 0.290654
12612.523300, 0.290396
12622.094470, 0.290140
12632.299910, 0.289886
12642.501400, 0.289634
12652.698950, 0.289382
12662.255570, 0.289132
12672.445470, 0.288884
12682.631420, 0.288635
12692.177150, 0.288386
12702.355440, 0.288138
12712.529750, 0.287892
12722.064580, 0.287650
12732.231210, 0.287405
12742.393870, 0.287154
12752.552560, 0.286897
12762.072710, 0.286635
12772.223690, 0.286374
12782.370680, 0.286115
12792.513690, 0.285863
12802.019130, 0.285616
12812.154400, 0.285372
12822.285680, 0.285129
12832.412950, 0.284888
12842.536220, 0.284651
12852.023150, 0.284415
12862.138660, 0.284180
12872.250160, 0.283948
12882.357640, 0.283717
12892.461100, 0.283491
12901.929440, 0.283267
12912.025110, 0.283048
12922.116750, 0.282830
12932.204360, 0.282614
12942.287940, 0.282398
12952.367470, 0.282184
12962.442970, 0.281969
12971.885080, 0.281753
12981.952740, 0.281538
12992.016350, 0.281326
13002.075910, 0.281116
13012.131410, 0.280908
13022.182860, 0.280700
13032.230240, 0.280494
13042.273560, 0.280286
13052.312810, 0.280078
13062.347990, 0.279872
13072.379090, 0.279667
13081.779550, 0.279466
13091.802750, 0.279268
13101.821860, 0.279075
13111.836890, 0.278884
13121.847830, 0.278693
13131.854680, 0.278501
13141.857430, 0.278305
13151.856080, 0.278107
13161.850630, 0.277909
13171.841070, 0.277714
13181.827400, 0.277519
13191.809630, 0.277323
13201.787740, 0.277123
13211.761720, 0.276925
13221.731590, 0.276729
13231.697340, 0.276532
13241.658950, 0.276333
13252.238650, 0.276135
13262.191740, 0.275938
13272.140700, 0.275740
13282.085520, 0.275540
13292.026190, 0.275339
13301.962720, 0.275138
13311.895100, 0.274943
13321.823330, 0.274750
13331.747400, 0.274563
13341.667310, 0.274378
13351.583060, 0.274202
13362.113980, 0.274031
13372.021140, 0.273864
13381.924130, 0.273693
13391.822940, 0.273519
13401.717580, 0.273342
13411.608030, 0.273171
13422.112060, 0.273002
13431.993880, 0.272840
13441.871510, 0.272680
13451.744950, 0.272527
13461.614200, 0.272379
13472.095670, 0.272236
13481.956250, 0.272091
13491.812630, 0.271942
13501.664790, 0.271791
13511.512750, 0.271639
13521.971580, 0.271489
13531.810840, 0.271341
13541.645880, 0.271193
13551.476690, 0.271037
13561.917300, 0.270873
13571.739400, 0.270705
13581.557250, 0.270537
13591.984090, 0.270373
13601.793210, 0.270209
13611.598080, 0.270049
13621.398710, 0.269887
13631.807220, 0.269726
13641.599090, 0.269568
13651.386690, 0.269413
13661.781360, 0.269266
13671.560180, 0.269130
13681.945510, 0.269005
13691.715530, 0.268886
13701.481280, 0.268765
13711.852710, 0.268638
13721.609640, 0.268506
13731.362300, 0.268360
13741.719800, 0.268214
13751.463610, 0.268071
13761.811720, 0.267934
13771.546680, 0.267799
13781.885380, 0.267659
13791.611480, 0.267511
13801.333280, 0.267350
13811.657980, 0.267181
13821.370890, 0.267019
13831.686150, 0.266868
13841.390170, 0.266714
13851.695960, 0.266542
13861.391080, 0.266359
13871.687400, 0.266168
13881.373590, 0.265984
13891.660430, 0.265795
13901.337690, 0.265610
13911.615020, 0.265412
13921.283340, 0.265210
13931.551160, 0.265017
13941.210510, 0.264829
13951.468810, 0.264638
13961.722190, 0.264434
13971.367950, 0.264229
13981.611790, 0.264028
13991.248550, 0.263828
14001.482830, 0.263647
14011.712170, 0.263467
14021.335290, 0.263270
14031.555050, 0.263037
14041.169140, 0.262800
14051.379310, 0.262604
14061.584530, 0.262444
14071.184930, 0.262278
14081.380530, 0.262058
14091.571180, 0.261818
14101.157850, 0.261608
14111.338860, 0.261455
14121.514910, 0.261289
14131.087820, 0.261138
14141.254210, 0.260995
14151.415610, 0.260872
14161.572040, 0.260667
14171.126470, 0.260424
14181.273210, 0.260251
14191.414960, 0.260162
14201.551710, 0.259969
14211.087620, 0.259875
14221.214660, 0.259752
14231.336690, 0.259574
14241.453710, 0.259591
14250.971030, 0.259566
14261.078310, 0.259485
14271.180570, 0.259290
14281.277810, 0.259075
14291.370010, 0.258885
14301.457180, 0.258658
14310.946390, 0.258530
14321.023790, 0.258446
14331.096140, 0.258374
14341.163440, 0.258291
14351.225700, 0.258209
14361.282900, 0.258117
14371.335040, 0.258001
14381.382130, 0.257896
14391.424150, 0.257797
14400.870830, 0.257730
14410.903010, 0.257677
14420.930110, 0.257629
14430.952140, 0.257575
14440.969080, 0.257529
14450.980940, 0.257517
14460.987710, 0.257529
14470.989390, 0.257514
14480.985970, 0.257485
14490.977450, 0.257451
14500.963830, 0.257429
14510.945100, 0.257423
14520.921270, 0.257432
14530.892320, 0.257438
14540.858250, 0.257444
14550.819060, 0.257441
14560.774750, 0.257461
14571.310480, 0.257483
14581.255610, 0.257506
14591.195610, 0.257497
14601.130460, 0.257457
14611.060180, 0.257389
14620.984750, 0.257329
14630.904170, 0.257290
14640.818440, 0.257280
14650.727550, 0.257299
14661.213930, 0.257313
14671.112420, 0.257318
14681.005740, 0.257292
14690.893890, 0.257259
14700.776870, 0.257233
14710.654670, 0.257233
14721.107870, 0.257258
14730.975000, 0.257278
14740.836950, 0.257287
14750.693700, 0.257287
14761.124610, 0.257297
14770.970660, 0.257325
14780.811520, 0.257380
14790.647170, 0.257463
14801.055710, 0.257554
14810.880640, 0.257636
14820.700340, 0.257699
14831.091990, 0.257748
14840.900950, 0.257785
14850.704690, 0.257828
14861.079410, 0.257885
14870.872370, 0.257963
14880.660100, 0.258043
14891.017860, 0.258113
14900.794800, 0.258166
14910.566490, 0.258208
14920.907260, 0.258246
14930.668130, 0.258276
14940.997440, 0.258292
14950.747490, 0.258304
14960.492270, 0.258306
14970.804530, 0.258309
14980.538460, 0.258301
14990.839220, 0.258292
15000.562290, 0.258279
15010.851540, 0.258263
15020.563730, 0.258253
15030.841460, 0.258242
15040.542750, 0.258226
15050.808940, 0.258191
15060.499320, 0.258151
15070.753950, 0.258115
15080.433420, 0.258084
15090.676470, 0.258039
15100.913570, 0.257982
15110.576470, 0.257916
15120.801970, 0.257852
15130.453910, 0.257783
15140.667800, 0.257699
15150.875710, 0.257606
15160.511030, 0.257515
15170.707310, 0.257445
15180.331630, 0.257389
15190.516260, 0.257342
15200.694890, 0.257286
15210.302530, 0.257221
15220.469500, 0.257143
15230.630450, 0.257049
15240.785390, 0.256944
15250.370640, 0.256831
15260.513880, 0.256713
15270.651090, 0.256588
15280.782270, 0.256456
15290.345070, 0.256328
15300.464520, 0.256201
15310.577930, 0.256077
15320.685300, 0.255939
15330.225590, 0.255782
15340.321190, 0.255600
15350.410730, 0.255408
15360.494220, 0.255212
15370.571640, 0.255018
15380.642990, 0.254821
15390.708270, 0.254621
15400.208790, 0.254410
15410.262250, 0.254202
15420.309630, 0.254004
15430.350920, 0.253823
15440.386120, 0.253646
15450.415220, 0.253464
15460.438230, 0.253280
15470.455130, 0.253101
15480.465920, 0.252931
15490.470600, 0.252760
15500.469170, 0.252588
15510.461610, 0.252408
15520.447940, 0.252228
15530.428130, 0.252051
15540.402200, 0.251890
15550.370130, 0.251743
15560.331920, 0.251601
15570.287570, 0.251454
15580.237070, 0.251297
15590.180420, 0.251138
15600.117610, 0.250979
15610.048650, 0.250816
15620.524720, 0.250647
15630.443090, 0.250468
15640.355280, 0.250285
15650.261300, 0.250108
15660.161140, 0.249941
15670.054800, 0.249781
15680.491400, 0.249620
15690.372340, 0.249460
15700.247080, 0.249303
15710.115630, 0.249154
15719.977970, 0.249011
15730.381490, 0.248876
15740.231070, 0.248746
15750.074440, 0.248621
15759.911590, 0.248498
15770.288500, 0.248379
15780.112860, 0.248260
15789.930980, 0.248145
15800.287800, 0.248032
15810.093110, 0.247921
15819.892180, 0.247809
15830.228860, 0.247696
15840.015090, 0.247583
15850.338210, 0.247469
15860.111580, 0.247351
15869.878690, 0.247225
15880.181610, 0.247097
15889.935840, 0.246964
15900.225160, 0.246827
15909.966480, 0.246685
15920.242180, 0.246543
15929.970590, 0.246406
15940.232640, 0.246269
15949.948120, 0.246136
15960.196520, 0.246004
15969.899050, 0.245868
15980.133770, 0.245725
15989.823340, 0.245579
16000.044360, 0.245433
