# Wavelength  (nm), Transmission (%)
270.000000, 0.003875
270.200000, 0.003866
270.400000, 0.003857
270.600000, 0.003848
270.800000, 0.003839
271.000000, 0.003829
271.200000, 0.003820
271.400000, 0.003811
271.600000, 0.003802
271.800000, 0.003793
272.000000, 0.003784
272.200000, 0.003775
272.400000, 0.003769
272.600000, 0.003776
272.800000, 0.003783
273.000000, 0.003790
273.200000, 0.003796
273.400000, 0.003803
273.600000, 0.003810
273.800000, 0.003816
274.000000, 0.003823
274.200000, 0.003830
274.400000, 0.003837
274.600000, 0.003843
274.800000, 0.003850
275.000000, 0.003857
275.200000, 0.003665
275.400000, 0.003483
275.600000, 0.003375
275.800000, 0.003359
276.000000, 0.003343
276.200000, 0.003327
276.400000, 0.003311
276.600000, 0.003295
276.800000, 0.003279
277.000000, 0.003263
277.200000, 0.003247
277.400000, 0.003231
277.600000, 0.003216
277.800000, 0.003200
278.000000, 0.003185
278.200000, 0.003169
278.400000, 0.003154
278.600000, 0.003116
278.800000, 0.002905
279.000000, 0.002708
279.200000, 0.002525
279.400000, 0.002354
279.600000, 0.002194
279.800000, 0.002045
280.000000, 0.001907
280.200000, 0.001777
280.400000, 0.001657
280.600000, 0.001545
280.800000, 0.001440
281.000000, 0.001342
281.200000, 0.001251
281.400000, 0.001167
281.600000, 0.001087
281.800000, 0.001096
282.000000, 0.001128
282.200000, 0.001160
282.400000, 0.001193
282.600000, 0.001227
282.800000, 0.001262
283.000000, 0.001298
283.200000, 0.001336
283.400000, 0.001374
283.600000, 0.001413
283.800000, 0.001454
284.000000, 0.001495
284.200000, 0.001538
284.400000, 0.001582
284.600000, 0.001627
284.800000, 0.001606
285.000000, 0.001517
285.200000, 0.001434
285.400000, 0.001355
285.600000, 0.001281
285.800000, 0.001210
286.000000, 0.001144
286.200000, 0.001081
286.400000, 0.001022
286.600000, 0.000966
286.800000, 0.000913
287.000000, 0.000862
287.200000, 0.000815
287.400000, 0.000770
287.600000, 0.000728
287.800000, 0.000696
288.000000, 0.000700
288.200000, 0.000705
288.400000, 0.000710
288.600000, 0.000714
288.800000, 0.000719
289.000000, 0.000723
289.200000, 0.000728
289.400000, 0.000733
289.600000, 0.000737
289.800000, 0.000742
290.000000, 0.000747
290.200000, 0.000752
290.400000, 0.000757
290.600000, 0.000761
290.800000, 0.000766
291.000000, 0.000752
291.200000, 0.000737
291.400000, 0.000721
291.600000, 0.000706
291.800000, 0.000691
292.000000, 0.000676
292.200000, 0.000662
292.400000, 0.000648
292.600000, 0.000634
292.800000, 0.000621
293.000000, 0.000608
293.200000, 0.000595
293.400000, 0.000582
293.600000, 0.000570
293.800000, 0.000558
294.000000, 0.000545
294.200000, 0.000532
294.400000, 0.000520
294.600000, 0.000508
294.800000, 0.000496
295.000000, 0.000484
295.200000, 0.000474
295.400000, 0.000465
295.600000, 0.000455
295.800000, 0.000446
296.000000, 0.000437
296.200000, 0.000429
296.400000, 0.000420
296.600000, 0.000411
296.800000, 0.000403
297.000000, 0.000395
297.200000, 0.000389
297.400000, 0.000400
297.600000, 0.000411
297.800000, 0.000423
298.000000, 0.000435
298.200000, 0.000447
298.400000, 0.000460
298.600000, 0.000473
298.800000, 0.000486
299.000000, 0.000500
299.200000, 0.000515
299.400000, 0.000529
299.600000, 0.000544
299.800000, 0.000560
300.000000, 0.000576
300.200000, 0.000592
300.400000, 0.000570
300.600000, 0.000539
300.800000, 0.000510
301.000000, 0.000483
301.200000, 0.000457
301.400000, 0.000432
301.600000, 0.000409
301.800000, 0.000387
302.000000, 0.000366
302.200000, 0.000346
302.400000, 0.000327
302.600000, 0.000310
302.800000, 0.000293
303.000000, 0.000277
303.200000, 0.000262
303.400000, 0.000266
303.600000, 0.000291
303.800000, 0.000317
304.000000, 0.000346
304.200000, 0.000378
304.400000, 0.000412
304.600000, 0.000450
304.800000, 0.000491
305.000000, 0.000536
305.200000, 0.000708
305.400000, 0.000709
305.600000, 0.000711
305.800000, 0.000713
306.000000, 0.000715
306.200000, 0.000717
306.400000, 0.000718
306.600000, 0.000720
306.800000, 0.000722
307.000000, 0.000724
307.200000, 0.000726
307.400000, 0.000727
307.600000, 0.000729
307.800000, 0.000731
308.000000, 0.000733
308.200000, 0.000736
308.400000, 0.000750
308.600000, 0.000765
308.800000, 0.000780
309.000000, 0.000795
309.200000, 0.000810
309.400000, 0.000826
309.600000, 0.000842
309.800000, 0.000859
310.000000, 0.000875
310.200000, 0.000892
310.400000, 0.000910
310.600000, 0.000928
310.800000, 0.000946
311.000000, 0.000964
311.200000, 0.000983
311.400000, 0.000982
311.600000, 0.000976
311.800000, 0.000970
312.000000, 0.000964
312.200000, 0.000958
312.400000, 0.000953
312.600000, 0.000947
312.800000, 0.000941
313.000000, 0.000935
313.200000, 0.000930
313.400000, 0.000924
313.600000, 0.000918
313.800000, 0.000913
314.000000, 0.000907
314.200000, 0.000902
314.400000, 0.000907
314.600000, 0.000924
314.800000, 0.000942
315.000000, 0.000960
315.200000, 0.000978
315.400000, 0.000997
315.600000, 0.001016
315.800000, 0.001035
316.000000, 0.001055
316.200000, 0.001075
316.400000, 0.001096
316.600000, 0.001117
316.800000, 0.001138
317.000000, 0.001160
317.200000, 0.001182
317.400000, 0.001207
317.600000, 0.001247
317.800000, 0.001288
318.000000, 0.001331
318.200000, 0.001375
318.400000, 0.001420
318.600000, 0.001467
318.800000, 0.001516
319.000000, 0.001566
319.200000, 0.001618
319.400000, 0.001671
319.600000, 0.001726
319.800000, 0.001783
320.000000, 0.001842
320.200000, 0.001903
320.400000, 0.001966
320.600000, 0.002040
320.800000, 0.002119
321.000000, 0.002201
321.200000, 0.002286
321.400000, 0.002374
321.600000, 0.002466
321.800000, 0.002561
322.000000, 0.002660
322.200000, 0.002763
322.400000, 0.002870
322.600000, 0.002980
322.800000, 0.003095
323.000000, 0.003215
323.200000, 0.003339
323.400000, 0.003468
323.600000, 0.003510
323.800000, 0.003476
324.000000, 0.003442
324.200000, 0.003408
324.400000, 0.003374
324.600000, 0.003341
324.800000, 0.003308
325.000000, 0.003276
325.200000, 0.003243
325.400000, 0.003211
325.600000, 0.003180
325.800000, 0.003148
326.000000, 0.003117
326.200000, 0.003087
326.400000, 0.003056
326.600000, 0.002983
326.800000, 0.002782
327.000000, 0.002595
327.200000, 0.002421
327.400000, 0.002258
327.600000, 0.002106
327.800000, 0.001964
328.000000, 0.001832
328.200000, 0.001709
328.400000, 0.001594
328.600000, 0.001487
328.800000, 0.001386
329.000000, 0.001293
329.200000, 0.001206
329.400000, 0.001125
329.600000, 0.001049
329.800000, 0.000983
330.000000, 0.000922
330.200000, 0.000864
330.400000, 0.000810
330.600000, 0.000759
330.800000, 0.000712
331.000000, 0.000667
331.200000, 0.000625
331.400000, 0.000586
331.600000, 0.000549
331.800000, 0.000515
332.000000, 0.000483
332.200000, 0.000452
332.400000, 0.000424
332.600000, 0.000397
332.800000, 0.000386
333.000000, 0.000382
333.200000, 0.000378
333.400000, 0.000375
333.600000, 0.000371
333.800000, 0.000367
334.000000, 0.000363
334.200000, 0.000360
334.400000, 0.000356
334.600000, 0.000352
334.800000, 0.000349
335.000000, 0.000345
335.200000, 0.000342
335.400000, 0.000338
335.600000, 0.000335
335.800000, 0.000331
336.000000, 0.000327
336.200000, 0.000324
336.400000, 0.000320
336.600000, 0.000316
336.800000, 0.000313
337.000000, 0.000309
337.200000, 0.000306
337.400000, 0.000302
337.600000, 0.000299
337.800000, 0.000295
338.000000, 0.000292
338.200000, 0.000289
338.400000, 0.000285
338.600000, 0.000282
338.800000, 0.000279
339.000000, 0.000279
339.200000, 0.000278
339.400000, 0.000277
339.600000, 0.000277
339.800000, 0.000276
340.000000, 0.000276
340.200000, 0.000275
340.400000, 0.000274
340.600000, 0.000274
340.800000, 0.000273
341.000000, 0.000273
341.200000, 0.000272
341.400000, 0.000271
341.600000, 0.000271
341.800000, 0.000270
342.000000, 0.000266
342.200000, 0.000262
342.400000, 0.000257
342.600000, 0.000253
342.800000, 0.000249
343.000000, 0.000245
343.200000, 0.000241
343.400000, 0.000237
343.600000, 0.000233
343.800000, 0.000229
344.000000, 0.000225
344.200000, 0.000221
344.400000, 0.000217
344.600000, 0.000214
344.800000, 0.000210
345.000000, 0.000208
345.200000, 0.000207
345.400000, 0.000207
345.600000, 0.000206
345.800000, 0.000205
346.000000, 0.000205
346.200000, 0.000204
346.400000, 0.000203
346.600000, 0.000203
346.800000, 0.000202
347.000000, 0.000201
347.200000, 0.000200
347.400000, 0.000200
347.600000, 0.000199
347.800000, 0.000198
348.000000, 0.000197
348.200000, 0.000196
348.400000, 0.000194
348.600000, 0.000192
348.800000, 0.000190
349.000000, 0.000189
349.200000, 0.000187
349.400000, 0.000185
349.600000, 0.000184
349.800000, 0.000182
350.000000, 0.000180
350.200000, 0.000179
350.400000, 0.000177
350.600000, 0.000175
350.800000, 0.000174
351.000000, 0.000172
351.200000, 0.000172
351.400000, 0.000172
351.600000, 0.000171
351.800000, 0.000171
352.000000, 0.000171
352.200000, 0.000170
352.400000, 0.000170
352.600000, 0.000170
352.800000, 0.000169
353.000000, 0.000169
353.200000, 0.000169
353.400000, 0.000168
353.600000, 0.000168
353.800000, 0.000168
354.000000, 0.000167
354.200000, 0.000168
354.400000, 0.000169
354.600000, 0.000170
354.800000, 0.000171
355.000000, 0.000172
355.200000, 0.000174
355.400000, 0.000175
355.600000, 0.000176
355.800000, 0.000177
356.000000, 0.000178
356.200000, 0.000179
356.400000, 0.000180
356.600000, 0.000181
356.800000, 0.000182
357.000000, 0.000183
357.200000, 0.000183
357.400000, 0.000180
357.600000, 0.000178
357.800000, 0.000175
358.000000, 0.000173
358.200000, 0.000171
358.400000, 0.000168
358.600000, 0.000166
358.800000, 0.000164
359.000000, 0.000161
359.200000, 0.000159
359.400000, 0.000157
359.600000, 0.000155
359.800000, 0.000153
360.000000, 0.000151
360.200000, 0.000151
360.400000, 0.000157
360.600000, 0.000163
360.800000, 0.000170
361.000000, 0.000176
361.200000, 0.000183
361.400000, 0.000190
361.600000, 0.000198
361.800000, 0.000206
362.000000, 0.000214
362.200000, 0.000222
362.400000, 0.000231
362.600000, 0.000240
362.800000, 0.000250
363.000000, 0.000260
363.200000, 0.000265
363.400000, 0.000217
363.600000, 0.000177
363.800000, 0.000144
364.000000, 0.000118
364.200000, 0.000096
364.400000, 0.000078
364.600000, 0.000064
364.800000, 0.000052
365.000000, 0.000043
365.200000, 0.000079
365.400000, 0.000069
365.600000, 0.000075
365.800000, 0.000082
366.000000, 0.000082
366.200000, 0.000078
366.400000, 0.000076
366.600000, 0.000067
366.800000, 0.000080
367.000000, 0.000075
367.200000, 0.000080
367.400000, 0.000072
367.600000, 0.000077
367.800000, 0.000081
368.000000, 0.000082
368.200000, 0.000074
368.400000, 0.000075
368.600000, 0.000075
368.800000, 0.000084
369.000000, 0.000076
369.200000, 0.000075
369.400000, 0.000071
369.600000, 0.000078
369.800000, 0.000071
370.000000, 0.000085
370.200000, 0.000081
370.400000, 0.000075
370.600000, 0.000069
370.800000, 0.000070
371.000000, 0.000078
371.200000, 0.000076
371.400000, 0.000077
371.600000, 0.000074
371.800000, 0.000079
372.000000, 0.000075
372.200000, 0.000078
372.400000, 0.000081
372.600000, 0.000075
372.800000, 0.000073
373.000000, 0.000073
373.200000, 0.000084
373.400000, 0.000079
373.600000, 0.000070
373.800000, 0.000072
374.000000, 0.000080
374.200000, 0.000076
374.400000, 0.000083
374.600000, 0.000071
374.800000, 0.000078
375.000000, 0.000075
375.200000, 0.000077
375.400000, 0.000085
375.600000, 0.000076
375.800000, 0.000071
376.000000, 0.000071
376.200000, 0.000081
376.400000, 0.000083
376.600000, 0.000075
376.800000, 0.000076
377.000000, 0.000075
377.200000, 0.000082
377.400000, 0.000079
377.600000, 0.000077
377.800000, 0.000078
378.000000, 0.000079
378.200000, 0.000079
378.400000, 0.000083
378.600000, 0.000074
378.800000, 0.000078
379.000000, 0.000074
379.200000, 0.000072
379.400000, 0.000080
379.600000, 0.000083
379.800000, 0.000078
380.000000, 0.000073
380.200000, 0.000080
380.400000, 0.000077
380.600000, 0.000076
380.800000, 0.000081
381.000000, 0.000077
381.200000, 0.000079
381.400000, 0.000077
381.600000, 0.000080
381.800000, 0.000084
382.000000, 0.000079
382.200000, 0.000074
382.400000, 0.000078
382.600000, 0.000081
382.800000, 0.000078
383.000000, 0.000075
383.200000, 0.000075
383.400000, 0.000071
383.600000, 0.000077
383.800000, 0.000079
384.000000, 0.000080
384.200000, 0.000075
384.400000, 0.000076
384.600000, 0.000079
384.800000, 0.000079
385.000000, 0.000083
385.200000, 0.000078
385.400000, 0.000076
385.600000, 0.000082
385.800000, 0.000082
386.000000, 0.000082
386.200000, 0.000075
386.400000, 0.000079
386.600000, 0.000077
386.800000, 0.000081
387.000000, 0.000080
387.200000, 0.000084
387.400000, 0.000079
387.600000, 0.000080
387.800000, 0.000082
388.000000, 0.000080
388.200000, 0.000085
388.400000, 0.000083
388.600000, 0.000078
388.800000, 0.000082
389.000000, 0.000079
389.200000, 0.000080
389.400000, 0.000080
389.600000, 0.000080
389.800000, 0.000078
390.000000, 0.000080
390.200000, 0.000078
390.400000, 0.000085
390.600000, 0.000080
390.800000, 0.000082
391.000000, 0.000081
391.200000, 0.000084
391.400000, 0.000080
391.600000, 0.000075
391.800000, 0.000085
392.000000, 0.000080
392.200000, 0.000089
392.400000, 0.000084
392.600000, 0.000082
392.800000, 0.000077
393.000000, 0.000079
393.200000, 0.000081
393.400000, 0.000084
393.600000, 0.000084
393.800000, 0.000079
394.000000, 0.000084
394.200000, 0.000089
394.400000, 0.000091
394.600000, 0.000095
394.800000, 0.000097
395.000000, 0.000101
395.200000, 0.000106
395.400000, 0.000116
395.600000, 0.000117
395.800000, 0.000125
396.000000, 0.000128
396.200000, 0.000135
396.400000, 0.000142
396.600000, 0.000152
396.800000, 0.000153
397.000000, 0.000162
397.200000, 0.000167
397.400000, 0.000173
397.600000, 0.000184
397.800000, 0.000187
398.000000, 0.000191
398.200000, 0.000197
398.400000, 0.000208
398.600000, 0.000216
398.800000, 0.000223
399.000000, 0.000223
399.200000, 0.000235
399.400000, 0.000241
399.600000, 0.000249
399.800000, 0.000256
400.000000, 0.000719
400.200000, 0.000910
400.400000, 0.000728
400.600000, 0.000882
400.800000, 0.000868
401.000000, 0.000962
401.200000, 0.000657
401.400000, 0.000687
401.600000, 0.000982
401.800000, 0.000453
402.000000, 0.000563
402.200000, 0.001069
402.400000, 0.000696
402.600000, 0.000714
402.800000, 0.000736
403.000000, 0.001073
403.200000, 0.000589
403.400000, 0.000824
403.600000, 0.000604
403.800000, 0.000739
404.000000, 0.001013
404.200000, 0.000887
404.400000, 0.000766
404.600000, 0.000769
404.800000, 0.001039
405.000000, 0.001047
405.200000, 0.000737
405.400000, 0.000787
405.600000, 0.000743
405.800000, 0.000849
406.000000, 0.000594
406.200000, 0.000792
406.400000, 0.000870
406.600000, 0.000901
406.800000, 0.000706
407.000000, 0.000812
407.200000, 0.000919
407.400000, 0.000636
407.600000, 0.000755
407.800000, 0.000809
408.000000, 0.000754
408.200000, 0.000748
408.400000, 0.000663
408.600000, 0.000967
408.800000, 0.000729
409.000000, 0.000971
409.200000, 0.000551
409.400000, 0.000881
409.600000, 0.000666
409.800000, 0.000842
410.000000, 0.000934
410.200000, 0.000922
410.400000, 0.000789
410.600000, 0.000588
410.800000, 0.000830
411.000000, 0.000774
411.200000, 0.001023
411.400000, 0.000793
411.600000, 0.000736
411.800000, 0.000587
412.000000, 0.000784
412.200000, 0.000960
412.400000, 0.001082
412.600000, 0.001065
412.800000, 0.000615
413.000000, 0.000854
413.200000, 0.000932
413.400000, 0.000885
413.600000, 0.000954
413.800000, 0.000901
414.000000, 0.000826
414.200000, 0.000835
414.400000, 0.000667
414.600000, 0.000756
414.800000, 0.000916
415.000000, 0.000870
415.200000, 0.000796
415.400000, 0.000909
415.600000, 0.000793
415.800000, 0.000804
416.000000, 0.000968
416.200000, 0.000818
416.400000, 0.000959
416.600000, 0.001055
416.800000, 0.001002
417.000000, 0.000651
417.200000, 0.000838
417.400000, 0.001019
417.600000, 0.000948
417.800000, 0.000935
418.000000, 0.001047
418.200000, 0.001209
418.400000, 0.000678
418.600000, 0.000894
418.800000, 0.000828
419.000000, 0.000862
419.200000, 0.000708
419.400000, 0.000812
419.600000, 0.001119
419.800000, 0.001112
420.000000, 0.000991
420.200000, 0.001080
420.400000, 0.001096
420.600000, 0.000972
420.800000, 0.000907
421.000000, 0.001153
421.200000, 0.000949
421.400000, 0.001052
421.600000, 0.001084
421.800000, 0.000774
422.000000, 0.001031
422.200000, 0.000803
422.400000, 0.001115
422.600000, 0.001035
422.800000, 0.001089
423.000000, 0.001113
423.200000, 0.001204
423.400000, 0.001108
423.600000, 0.001177
423.800000, 0.001501
424.000000, 0.001632
424.200000, 0.001526
424.400000, 0.001779
424.600000, 0.002285
424.800000, 0.002839
425.000000, 0.004146
425.200000, 0.015738
425.400000, 0.023939
425.600000, 0.036617
425.800000, 0.059037
426.000000, 0.114000
426.200000, 0.270000
426.400000, 0.694000
426.600000, 1.749000
426.800000, 4.365000
427.000000, 12.317000
427.200000, 29.462000
427.400000, 51.599000
427.600000, 67.335000
427.800000, 73.866000
428.000000, 73.653000
428.200000, 75.854000
428.400000, 76.830000
428.600000, 78.676000
428.800000, 81.459000
429.000000, 84.277000
429.200000, 86.811000
429.400000, 86.398000
429.600000, 89.888000
429.800000, 91.150000
430.000000, 92.029000
430.200000, 92.812000
430.400000, 93.466000
430.600000, 93.975000
430.800000, 91.802000
431.000000, 93.687000
431.200000, 93.581000
431.400000, 93.340000
431.600000, 92.959000
431.800000, 92.840000
432.000000, 92.776000
432.200000, 91.076000
432.400000, 92.755000
432.600000, 92.997000
432.800000, 93.132000
433.000000, 93.139000
433.200000, 93.025000
433.400000, 92.923000
433.600000, 91.510000
433.800000, 92.623000
434.000000, 92.819000
434.200000, 93.050000
434.400000, 93.254000
434.600000, 93.481000
434.800000, 93.698000
435.000000, 93.877000
435.200000, 94.167000
435.400000, 94.177000
435.600000, 94.307000
435.800000, 94.303000
436.000000, 94.284000
436.200000, 94.349000
436.400000, 94.247000
436.600000, 94.380000
436.800000, 94.597000
437.000000, 94.583000
437.200000, 94.724000
437.400000, 94.911000
437.600000, 94.909000
437.800000, 95.064000
438.000000, 94.974000
438.200000, 94.869000
438.400000, 94.655000
438.600000, 94.524000
438.800000, 94.363000
439.000000, 94.148000
439.200000, 93.956000
439.400000, 93.836000
439.600000, 93.792000
439.800000, 93.849000
440.000000, 93.860000
440.200000, 94.018000
440.400000, 94.175000
440.600000, 94.317000
440.800000, 94.508000
441.000000, 94.639000
441.200000, 94.806000
441.400000, 94.744000
441.600000, 94.798000
441.800000, 94.762000
442.000000, 94.645000
442.200000, 94.532000
442.400000, 94.540000
442.600000, 94.478000
442.800000, 94.465000
443.000000, 94.501000
443.200000, 94.630000
443.400000, 94.577000
443.600000, 94.616000
443.800000, 94.664000
444.000000, 94.662000
444.200000, 94.614000
444.400000, 94.713000
444.600000, 94.552000
444.800000, 94.442000
445.000000, 94.346000
445.200000, 94.102000
445.400000, 94.064000
445.600000, 93.913000
445.800000, 93.904000
446.000000, 93.892000
446.200000, 93.885000
446.400000, 93.954000
446.600000, 94.101000
446.800000, 94.232000
447.000000, 94.245000
447.200000, 94.420000
447.400000, 94.571000
447.600000, 94.547000
447.800000, 94.577000
448.000000, 94.511000
448.200000, 94.513000
448.400000, 94.438000
448.600000, 94.376000
448.800000, 94.238000
449.000000, 94.220000
449.200000, 94.269000
449.400000, 94.269000
449.600000, 94.384000
449.800000, 94.461000
450.000000, 94.568000
450.200000, 94.652000
450.400000, 94.800000
450.600000, 94.920000
450.800000, 94.938000
451.000000, 94.956000
451.200000, 94.927000
451.400000, 94.894000
451.600000, 94.851000
451.800000, 94.816000
452.000000, 94.743000
452.200000, 94.709000
452.400000, 94.569000
452.600000, 94.599000
452.800000, 94.533000
453.000000, 94.511000
453.200000, 94.623000
453.400000, 94.608000
453.600000, 94.672000
453.800000, 94.663000
454.000000, 94.500000
454.200000, 94.496000
454.400000, 94.439000
454.600000, 94.346000
454.800000, 94.225000
455.000000, 94.029000
455.200000, 94.022000
455.400000, 93.892000
455.600000, 93.879000
455.800000, 93.842000
456.000000, 93.849000
456.200000, 94.010000
456.400000, 94.114000
456.600000, 94.267000
456.800000, 94.416000
457.000000, 94.583000
457.200000, 94.618000
457.400000, 94.775000
457.600000, 94.818000
457.800000, 94.852000
458.000000, 94.847000
458.200000, 94.733000
458.400000, 94.698000
458.600000, 94.635000
458.800000, 94.634000
459.000000, 94.597000
459.200000, 94.640000
459.400000, 94.629000
459.600000, 94.740000
459.800000, 94.799000
460.000000, 94.943000
460.200000, 95.022000
460.400000, 95.186000
460.600000, 95.182000
460.800000, 95.227000
461.000000, 95.165000
461.200000, 95.121000
461.400000, 95.031000
461.600000, 94.979000
461.800000, 94.827000
462.000000, 94.739000
462.200000, 94.630000
462.400000, 94.561000
462.600000, 94.528000
462.800000, 94.498000
463.000000, 94.631000
463.200000, 94.706000
463.400000, 94.829000
463.600000, 94.971000
463.800000, 95.111000
464.000000, 95.198000
464.200000, 95.204000
464.400000, 95.237000
464.600000, 95.238000
464.800000, 95.122000
465.000000, 94.936000
465.200000, 94.644000
465.400000, 94.485000
465.600000, 94.247000
465.800000, 94.047000
466.000000, 93.909000
466.200000, 93.774000
466.400000, 93.773000
466.600000, 93.807000
466.800000, 93.931000
467.000000, 94.126000
467.200000, 94.315000
467.400000, 94.565000
467.600000, 94.776000
467.800000, 95.045000
468.000000, 95.166000
468.200000, 95.287000
468.400000, 95.300000
468.600000, 95.304000
468.800000, 95.265000
469.000000, 95.158000
469.200000, 94.946000
469.400000, 94.894000
469.600000, 94.755000
469.800000, 94.594000
470.000000, 94.495000
470.200000, 94.492000
470.400000, 94.384000
470.600000, 94.395000
470.800000, 94.493000
471.000000, 94.494000
471.200000, 94.622000
471.400000, 94.729000
471.600000, 94.791000
471.800000, 94.878000
472.000000, 94.857000
472.200000, 94.842000
472.400000, 94.787000
472.600000, 94.714000
472.800000, 94.624000
473.000000, 94.498000
473.200000, 94.440000
473.400000, 94.335000
473.600000, 94.339000
473.800000, 94.308000
474.000000, 94.305000
474.200000, 94.275000
474.400000, 94.281000
474.600000, 94.361000
474.800000, 94.454000
475.000000, 94.518000
475.200000, 94.571000
475.400000, 94.572000
475.600000, 94.569000
475.800000, 94.635000
476.000000, 94.605000
476.200000, 94.627000
476.400000, 94.589000
476.600000, 94.541000
476.800000, 94.576000
477.000000, 94.611000
477.200000, 94.624000
477.400000, 94.801000
477.600000, 94.886000
477.800000, 94.962000
478.000000, 95.094000
478.200000, 95.201000
478.400000, 95.315000
478.600000, 95.480000
478.800000, 95.568000
479.000000, 95.527000
479.200000, 95.537000
479.400000, 95.505000
479.600000, 95.397000
479.800000, 95.356000
480.000000, 95.216000
480.200000, 95.121000
480.400000, 94.960000
480.600000, 94.844000
480.800000, 94.654000
481.000000, 94.584000
481.200000, 94.410000
481.400000, 94.361000
481.600000, 94.267000
481.800000, 94.222000
482.000000, 94.173000
482.200000, 94.087000
482.400000, 94.107000
482.600000, 94.059000
482.800000, 94.134000
483.000000, 94.101000
483.200000, 94.183000
483.400000, 94.330000
483.600000, 94.365000
483.800000, 94.449000
484.000000, 94.542000
484.200000, 94.525000
484.400000, 94.730000
484.600000, 94.656000
484.800000, 94.739000
485.000000, 94.626000
485.200000, 94.581000
485.400000, 94.652000
485.600000, 94.663000
485.800000, 94.607000
486.000000, 94.688000
486.200000, 94.708000
486.400000, 94.748000
486.600000, 94.794000
486.800000, 94.840000
487.000000, 94.881000
487.200000, 94.885000
487.400000, 94.970000
487.600000, 94.892000
487.800000, 94.879000
488.000000, 94.979000
488.200000, 94.869000
488.400000, 94.806000
488.600000, 94.608000
488.800000, 94.130000
489.000000, 93.209000
489.200000, 91.740000
489.400000, 89.683000
489.600000, 87.188000
489.800000, 84.617000
490.000000, 82.201000
490.200000, 80.659000
490.400000, 80.552000
490.600000, 82.494000
490.800000, 86.546000
491.000000, 90.234000
491.200000, 86.673000
491.400000, 69.805000
491.600000, 44.929000
491.800000, 25.028000
492.000000, 13.307000
492.200000, 6.840000
492.400000, 3.801000
492.600000, 2.209000
492.800000, 1.342000
493.000000, 0.845000
493.200000, 0.557000
493.400000, 0.374000
493.600000, 0.226000
493.800000, 0.157000
494.000000, 0.110000
494.200000, 0.079061
494.400000, 0.058015
494.600000, 0.043159
494.800000, 0.032452
495.000000, 0.024137
495.200000, 0.018508
495.400000, 0.014499
495.600000, 0.011510
495.800000, 0.009213
496.000000, 0.007493
496.200000, 0.006108
496.400000, 0.004968
496.600000, 0.004142
496.800000, 0.003537
497.000000, 0.003001
497.200000, 0.002617
497.400000, 0.002254
497.600000, 0.001947
497.800000, 0.001697
498.000000, 0.001502
498.200000, 0.001361
498.400000, 0.001215
498.600000, 0.001121
498.800000, 0.000990
499.000000, 0.000861
499.200000, 0.000777
499.400000, 0.000708
499.600000, 0.000636
499.800000, 0.000533
500.000000, 0.000465
500.200000, 0.000405
500.400000, 0.000349
500.600000, 0.000298
500.800000, 0.000236
501.000000, 0.000185
501.200000, 0.000165
501.400000, 0.000137
501.600000, 0.000110
501.800000, 0.000090
502.000000, 0.000083
502.200000, 0.000067
502.400000, 0.000051
502.600000, 0.000046
502.800000, 0.000041
503.000000, 0.000037
503.200000, 0.000035
503.400000, 0.000028
503.600000, 0.000025
503.800000, 0.000030
504.000000, 0.000032
504.200000, 0.000023
504.400000, 0.000011
504.600000, 0.000004
504.800000, 0.000014
505.000000, 0.000006
505.200000, 0.000009
505.400000, 0.000013
505.600000, 0.000014
505.800000, 0.000015
506.000000, 0.000008
506.200000, 0.000006
506.400000, 0.000007
506.600000, 0.000013
506.800000, 0.000013
507.000000, 0.000008
507.200000, 0.000008
507.400000, 0.000002
507.600000, 0.000005
507.800000, 0.000003
508.000000, 0.000002
508.200000, 0.000004
508.400000, 0.000006
508.600000, 0.000005
508.800000, 0.000006
509.000000, 0.000008
509.200000, 0.000011
509.400000, 0.000005
509.600000, 0.000002
509.800000, 0.000007
510.000000, 0.000009
510.200000, 0.000006
510.400000, 0.000005
510.600000, 0.000006
510.800000, 0.000005
511.000000, 0.000003
511.200000, 0.000005
511.400000, 0.000005
511.600000, 0.000006
511.800000, 0.000006
512.000000, 0.000006
512.200000, 0.000010
512.400000, 0.000008
512.600000, 0.000002
512.800000, 0.000002
513.000000, 0.000002
513.200000, 0.000003
513.400000, 0.000009
513.600000, 0.000008
513.800000, 0.000006
514.000000, 0.000009
514.200000, 0.000004
514.400000, 0.000004
514.600000, 0.000008
514.800000, 0.000013
515.000000, 0.000012
515.200000, 0.000009
515.400000, 0.000008
515.600000, 0.000003
515.800000, 0.000003
516.000000, 0.000006
516.200000, 0.000004
516.400000, 0.000002
516.600000, 0.000005
516.800000, 0.000008
517.000000, 0.000007
517.200000, 0.000003
517.400000, 0.000002
517.600000, 0.000004
517.800000, 0.000004
518.000000, 0.000001
518.200000, 0.000005
518.400000, 0.000003
518.600000, 0.000003
518.800000, 0.000008
519.000000, 0.000007
519.200000, 0.000007
519.400000, 0.000003
519.600000, 0.000002
519.800000, 0.000002
520.000000, 0.000002
520.200000, 0.000002
520.400000, 0.000005
520.600000, 0.000004
520.800000, 0.000001
521.000000, 0.000001
521.200000, 0.000002
521.400000, 0.000003
521.600000, 0.000006
521.800000, 0.000007
522.000000, 0.000008
522.200000, 0.000006
522.400000, 0.000004
522.600000, 0.000002
522.800000, 0.000002
523.000000, 0.000003
523.200000, 0.000006
523.400000, 0.000008
523.600000, 0.000002
523.800000, 0.000007
524.000000, 0.000024
524.200000, 0.000039
524.400000, 0.000086
524.600000, 0.000134
524.800000, 0.000117
525.000000, 0.000053
525.200000, 0.000028
525.400000, 0.000019
525.600000, 0.000014
525.800000, 0.000005
526.000000, 0.000009
526.200000, 0.000011
526.400000, 0.000007
526.600000, 0.000003
526.800000, 0.000002
527.000000, 0.000007
527.200000, 0.000006
527.400000, 0.000007
527.600000, 0.000006
527.800000, 0.000005
528.000000, 0.000004
528.200000, 0.000004
528.400000, 0.000005
528.600000, 0.000004
528.800000, 0.000002
529.000000, 0.000001
529.200000, 0.000005
529.400000, 0.000005
529.600000, 0.000003
529.800000, 0.000006
530.000000, 0.000008
530.200000, 0.000008
530.400000, 0.000008
530.600000, 0.000004
530.800000, 0.000005
531.000000, 0.000011
531.200000, 0.000007
531.400000, 0.000009
531.600000, 0.000005
531.800000, 0.000002
532.000000, 0.000001
532.200000, 0.000001
532.400000, 0.000002
532.600000, 0.000006
532.800000, 0.000002
533.000000, 0.000003
533.200000, 0.000002
533.400000, 0.000001
533.600000, 0.000002
533.800000, 0.000005
534.000000, 0.000001
534.200000, 0.000004
534.400000, 0.000002
534.600000, 0.000001
534.800000, 0.000002
535.000000, 0.000002
535.200000, 0.000001
535.400000, 0.000005
535.600000, 0.000002
535.800000, 0.000003
536.000000, 0.000006
536.200000, 0.000006
536.400000, 0.000005
536.600000, 0.000004
536.800000, 0.000001
537.000000, 0.000002
537.200000, 0.000003
537.400000, 0.000005
537.600000, 0.000006
537.800000, 0.000004
538.000000, 0.000005
538.200000, 0.000006
538.400000, 0.000002
538.600000, 0.000002
538.800000, 0.000002
539.000000, 0.000003
539.200000, 0.000006
539.400000, 0.000001
539.600000, 0.000001
539.800000, 0.000003
540.000000, 0.000003
540.200000, 0.000002
540.400000, 0.000003
540.600000, 0.000004
540.800000, 0.000002
541.000000, 0.000008
541.200000, 0.000009
541.400000, 0.000008
541.600000, 0.000006
541.800000, 0.000004
542.000000, 0.000005
542.200000, 0.000009
542.400000, 0.000012
542.600000, 0.000017
542.800000, 0.000026
543.000000, 0.000039
543.200000, 0.000062
543.400000, 0.000112
543.600000, 0.000171
543.800000, 0.000211
544.000000, 0.000204
544.200000, 0.000173
544.400000, 0.000143
544.600000, 0.000112
544.800000, 0.000091
545.000000, 0.000076
545.200000, 0.000064
545.400000, 0.000057
545.600000, 0.000053
545.800000, 0.000050
546.000000, 0.000052
546.200000, 0.000053
546.400000, 0.000053
546.600000, 0.000056
546.800000, 0.000054
547.000000, 0.000051
547.200000, 0.000055
547.400000, 0.000055
547.600000, 0.000054
547.800000, 0.000052
548.000000, 0.000051
548.200000, 0.000050
548.400000, 0.000047
548.600000, 0.000039
548.800000, 0.000034
549.000000, 0.000033
549.200000, 0.000030
549.400000, 0.000027
549.600000, 0.000025
549.800000, 0.000023
550.000000, 0.000022
550.200000, 0.000021
550.400000, 0.000022
550.600000, 0.000024
550.800000, 0.000021
551.000000, 0.000017
551.200000, 0.000015
551.400000, 0.000013
551.600000, 0.000013
551.800000, 0.000011
552.000000, 0.000014
552.200000, 0.000018
552.400000, 0.000017
552.600000, 0.000011
552.800000, 0.000012
553.000000, 0.000009
553.200000, 0.000013
553.400000, 0.000016
553.600000, 0.000017
553.800000, 0.000016
554.000000, 0.000019
554.200000, 0.000019
554.400000, 0.000022
554.600000, 0.000031
554.800000, 0.000032
555.000000, 0.000033
555.200000, 0.000038
555.400000, 0.000041
555.600000, 0.000043
555.800000, 0.000057
556.000000, 0.000063
556.200000, 0.000077
556.400000, 0.000089
556.600000, 0.000089
556.800000, 0.000110
557.000000, 0.000122
557.200000, 0.000131
557.400000, 0.000138
557.600000, 0.000139
557.800000, 0.000138
558.000000, 0.000138
558.200000, 0.000143
558.400000, 0.000128
558.600000, 0.000121
558.800000, 0.000117
559.000000, 0.000113
559.200000, 0.000114
559.400000, 0.000129
559.600000, 0.000116
559.800000, 0.000120
560.000000, 0.000118
560.200000, 0.000118
560.400000, 0.000121
560.600000, 0.000124
560.800000, 0.000127
561.000000, 0.000130
561.200000, 0.000133
561.400000, 0.000136
561.600000, 0.000140
561.800000, 0.000143
562.000000, 0.000147
562.200000, 0.000151
562.400000, 0.000154
562.600000, 0.000151
562.800000, 0.000142
563.000000, 0.000133
563.200000, 0.000125
563.400000, 0.000118
563.600000, 0.000111
563.800000, 0.000104
564.000000, 0.000098
564.200000, 0.000092
564.400000, 0.000087
564.600000, 0.000082
564.800000, 0.000077
565.000000, 0.000075
565.200000, 0.000077
565.400000, 0.000079
565.600000, 0.000082
565.800000, 0.000084
566.000000, 0.000086
566.200000, 0.000089
566.400000, 0.000091
566.600000, 0.000094
566.800000, 0.000096
567.000000, 0.000099
567.200000, 0.000101
567.400000, 0.000104
567.600000, 0.000106
567.800000, 0.000109
568.000000, 0.000111
568.200000, 0.000113
568.400000, 0.000116
568.600000, 0.000118
568.800000, 0.000121
569.000000, 0.000123
569.200000, 0.000126
569.400000, 0.000129
569.600000, 0.000132
569.800000, 0.000134
570.000000, 0.000129
570.200000, 0.000114
570.400000, 0.000101
570.600000, 0.000089
570.800000, 0.000079
571.000000, 0.000070
571.200000, 0.000062
571.400000, 0.000055
571.600000, 0.000049
571.800000, 0.000043
572.000000, 0.000038
572.200000, 0.000034
572.400000, 0.000030
572.600000, 0.000028
572.800000, 0.000027
573.000000, 0.000026
573.200000, 0.000024
573.400000, 0.000023
573.600000, 0.000022
573.800000, 0.000022
574.000000, 0.000021
574.200000, 0.000020
574.400000, 0.000019
574.600000, 0.000018
574.800000, 0.000017
575.000000, 0.000017
575.200000, 0.000017
575.400000, 0.000017
575.600000, 0.000017
575.800000, 0.000018
576.000000, 0.000018
576.200000, 0.000018
576.400000, 0.000018
576.600000, 0.000018
576.800000, 0.000018
577.000000, 0.000018
577.200000, 0.000018
577.400000, 0.000019
577.600000, 0.000021
577.800000, 0.000023
578.000000, 0.000025
578.200000, 0.000027
578.400000, 0.000030
578.600000, 0.000033
578.800000, 0.000036
579.000000, 0.000039
579.200000, 0.000043
579.400000, 0.000047
579.600000, 0.000051
579.800000, 0.000056
580.000000, 0.000062
580.200000, 0.000068
580.400000, 0.000075
580.600000, 0.000083
580.800000, 0.000091
581.000000, 0.000100
581.200000, 0.000111
581.400000, 0.000122
581.600000, 0.000134
581.800000, 0.000148
582.000000, 0.000163
582.200000, 0.000180
582.400000, 0.000198
582.600000, 0.000202
582.800000, 0.000194
583.000000, 0.000187
583.200000, 0.000180
583.400000, 0.000173
583.600000, 0.000167
583.800000, 0.000161
584.000000, 0.000155
584.200000, 0.000149
584.400000, 0.000143
584.600000, 0.000138
584.800000, 0.000133
585.000000, 0.000125
585.200000, 0.000115
585.400000, 0.000105
585.600000, 0.000097
585.800000, 0.000089
586.000000, 0.000081
586.200000, 0.000075
586.400000, 0.000069
586.600000, 0.000063
586.800000, 0.000058
587.000000, 0.000053
587.200000, 0.000049
587.400000, 0.000045
587.600000, 0.000043
587.800000, 0.000041
588.000000, 0.000039
588.200000, 0.000037
588.400000, 0.000035
588.600000, 0.000033
588.800000, 0.000031
589.000000, 0.000030
589.200000, 0.000028
589.400000, 0.000027
589.600000, 0.000026
589.800000, 0.000024
590.000000, 0.000024
590.200000, 0.000024
590.400000, 0.000024
590.600000, 0.000025
590.800000, 0.000025
591.000000, 0.000025
591.200000, 0.000025
591.400000, 0.000026
591.600000, 0.000026
591.800000, 0.000026
592.000000, 0.000027
592.200000, 0.000027
592.400000, 0.000027
592.600000, 0.000028
592.800000, 0.000030
593.000000, 0.000031
593.200000, 0.000033
593.400000, 0.000035
593.600000, 0.000037
593.800000, 0.000039
594.000000, 0.000041
594.200000, 0.000043
594.400000, 0.000045
594.600000, 0.000048
594.800000, 0.000050
595.000000, 0.000053
595.200000, 0.000056
595.400000, 0.000060
595.600000, 0.000063
595.800000, 0.000067
596.000000, 0.000071
596.200000, 0.000076
596.400000, 0.000080
596.600000, 0.000085
596.800000, 0.000090
597.000000, 0.000096
597.200000, 0.000102
597.400000, 0.000107
597.600000, 0.000109
597.800000, 0.000112
598.000000, 0.000115
598.200000, 0.000118
598.400000, 0.000120
598.600000, 0.000123
598.800000, 0.000127
599.000000, 0.000130
599.200000, 0.000133
599.400000, 0.000136
599.600000, 0.000140
599.800000, 0.000143
600.000000, 0.000144
600.200000, 0.000140
600.400000, 0.000137
600.600000, 0.000134
600.800000, 0.000131
601.000000, 0.000129
601.200000, 0.000126
601.400000, 0.000123
601.600000, 0.000120
601.800000, 0.000118
602.000000, 0.000115
602.200000, 0.000113
602.400000, 0.000110
602.600000, 0.000108
602.800000, 0.000105
603.000000, 0.000103
603.200000, 0.000101
603.400000, 0.000098
603.600000, 0.000096
603.800000, 0.000094
604.000000, 0.000092
604.200000, 0.000090
604.400000, 0.000088
604.600000, 0.000086
604.800000, 0.000084
605.000000, 0.000083
605.200000, 0.000084
605.400000, 0.000085
605.600000, 0.000085
605.800000, 0.000086
606.000000, 0.000087
606.200000, 0.000087
606.400000, 0.000088
606.600000, 0.000089
606.800000, 0.000089
607.000000, 0.000090
607.200000, 0.000091
607.400000, 0.000092
607.600000, 0.000093
607.800000, 0.000095
608.000000, 0.000097
608.200000, 0.000099
608.400000, 0.000101
608.600000, 0.000103
608.800000, 0.000105
609.000000, 0.000107
609.200000, 0.000109
609.400000, 0.000111
609.600000, 0.000113
609.800000, 0.000115
610.000000, 0.000114
610.200000, 0.000109
610.400000, 0.000104
610.600000, 0.000100
610.800000, 0.000095
611.000000, 0.000091
611.200000, 0.000087
611.400000, 0.000083
611.600000, 0.000080
611.800000, 0.000076
612.000000, 0.000073
612.200000, 0.000070
612.400000, 0.000067
612.600000, 0.000064
612.800000, 0.000061
613.000000, 0.000058
613.200000, 0.000055
613.400000, 0.000052
613.600000, 0.000050
613.800000, 0.000048
614.000000, 0.000045
614.200000, 0.000043
614.400000, 0.000041
614.600000, 0.000039
614.800000, 0.000037
615.000000, 0.000036
615.200000, 0.000036
615.400000, 0.000036
615.600000, 0.000036
615.800000, 0.000036
616.000000, 0.000036
616.200000, 0.000035
616.400000, 0.000035
616.600000, 0.000035
616.800000, 0.000035
617.000000, 0.000035
617.200000, 0.000035
617.400000, 0.000035
617.600000, 0.000036
617.800000, 0.000037
618.000000, 0.000038
618.200000, 0.000039
618.400000, 0.000040
618.600000, 0.000041
618.800000, 0.000042
619.000000, 0.000043
619.200000, 0.000044
619.400000, 0.000045
619.600000, 0.000046
619.800000, 0.000048
620.000000, 0.000050
620.200000, 0.000052
620.400000, 0.000055
620.600000, 0.000058
620.800000, 0.000061
621.000000, 0.000065
621.200000, 0.000068
621.400000, 0.000072
621.600000, 0.000076
621.800000, 0.000080
622.000000, 0.000084
622.200000, 0.000089
622.400000, 0.000093
622.600000, 0.000097
622.800000, 0.000099
623.000000, 0.000101
623.200000, 0.000103
623.400000, 0.000106
623.600000, 0.000108
623.800000, 0.000110
624.000000, 0.000113
624.200000, 0.000115
624.400000, 0.000118
624.600000, 0.000121
624.800000, 0.000123
625.000000, 0.000126
625.200000, 0.000129
625.400000, 0.000131
625.600000, 0.000134
625.800000, 0.000137
626.000000, 0.000139
626.200000, 0.000142
626.400000, 0.000145
626.600000, 0.000148
626.800000, 0.000151
627.000000, 0.000154
627.200000, 0.000158
627.400000, 0.000160
627.600000, 0.000161
627.800000, 0.000162
628.000000, 0.000162
628.200000, 0.000163
628.400000, 0.000164
628.600000, 0.000165
628.800000, 0.000166
629.000000, 0.000167
629.200000, 0.000167
629.400000, 0.000168
629.600000, 0.000169
629.800000, 0.000170
630.000000, 0.000167
630.200000, 0.000160
630.400000, 0.000154
630.600000, 0.000147
630.800000, 0.000141
631.000000, 0.000135
631.200000, 0.000130
631.400000, 0.000125
631.600000, 0.000119
631.800000, 0.000114
632.000000, 0.000110
632.200000, 0.000105
632.400000, 0.000101
632.600000, 0.000096
632.800000, 0.000091
633.000000, 0.000086
633.200000, 0.000081
633.400000, 0.000077
633.600000, 0.000073
633.800000, 0.000069
634.000000, 0.000065
634.200000, 0.000062
634.400000, 0.000058
634.600000, 0.000055
634.800000, 0.000052
635.000000, 0.000050
635.200000, 0.000050
635.400000, 0.000050
635.600000, 0.000050
635.800000, 0.000050
636.000000, 0.000050
636.200000, 0.000050
636.400000, 0.000049
636.600000, 0.000049
636.800000, 0.000049
637.000000, 0.000049
637.200000, 0.000049
637.400000, 0.000049
637.600000, 0.000050
637.800000, 0.000051
638.000000, 0.000052
638.200000, 0.000053
638.400000, 0.000054
638.600000, 0.000055
638.800000, 0.000056
639.000000, 0.000057
639.200000, 0.000058
639.400000, 0.000059
639.600000, 0.000060
639.800000, 0.000061
640.000000, 0.000063
640.200000, 0.000067
640.400000, 0.000072
640.600000, 0.000076
640.800000, 0.000081
641.000000, 0.000086
641.200000, 0.000091
641.400000, 0.000097
641.600000, 0.000103
641.800000, 0.000110
642.000000, 0.000117
642.200000, 0.000124
642.400000, 0.000132
642.600000, 0.000139
642.800000, 0.000146
643.000000, 0.000154
643.200000, 0.000162
643.400000, 0.000171
643.600000, 0.000180
643.800000, 0.000189
644.000000, 0.000199
644.200000, 0.000210
644.400000, 0.000221
644.600000, 0.000232
644.800000, 0.000245
645.000000, 0.000252
645.200000, 0.000252
645.400000, 0.000252
645.600000, 0.000252
645.800000, 0.000252
646.000000, 0.000252
646.200000, 0.000253
646.400000, 0.000253
646.600000, 0.000253
646.800000, 0.000253
647.000000, 0.000253
647.200000, 0.000253
647.400000, 0.000251
647.600000, 0.000246
647.800000, 0.000241
648.000000, 0.000235
648.200000, 0.000230
648.400000, 0.000225
648.600000, 0.000220
648.800000, 0.000216
649.000000, 0.000211
649.200000, 0.000206
649.400000, 0.000202
649.600000, 0.000197
649.800000, 0.000193
650.000000, 0.000196
650.200000, 0.000203
650.400000, 0.000211
650.600000, 0.000218
650.800000, 0.000226
651.000000, 0.000235
651.200000, 0.000243
651.400000, 0.000248
651.600000, 0.000253
651.800000, 0.000258
652.000000, 0.000263
652.200000, 0.000268
652.400000, 0.000273
652.600000, 0.000278
652.800000, 0.000283
653.000000, 0.000289
653.200000, 0.000294
653.400000, 0.000300
653.600000, 0.000303
653.800000, 0.000302
654.000000, 0.000301
654.200000, 0.000300
654.400000, 0.000298
654.600000, 0.000297
654.800000, 0.000296
655.000000, 0.000295
655.200000, 0.000293
655.400000, 0.000292
655.600000, 0.000291
655.800000, 0.000290
656.000000, 0.000278
656.200000, 0.000262
656.400000, 0.000248
656.600000, 0.000234
656.800000, 0.000220
657.000000, 0.000208
657.200000, 0.000196
657.400000, 0.000185
657.600000, 0.000174
657.800000, 0.000165
658.000000, 0.000155
658.200000, 0.000146
658.400000, 0.000137
658.600000, 0.000128
658.800000, 0.000119
659.000000, 0.000112
659.200000, 0.000104
659.400000, 0.000098
659.600000, 0.000091
659.800000, 0.000085
660.000000, 0.000080
660.200000, 0.000079
660.400000, 0.000079
660.600000, 0.000079
660.800000, 0.000079
661.000000, 0.000079
661.200000, 0.000079
661.400000, 0.000079
661.600000, 0.000079
661.800000, 0.000079
662.000000, 0.000079
662.200000, 0.000079
662.400000, 0.000079
662.600000, 0.000080
662.800000, 0.000081
663.000000, 0.000082
663.200000, 0.000083
663.400000, 0.000084
663.600000, 0.000085
663.800000, 0.000086
664.000000, 0.000087
664.200000, 0.000088
664.400000, 0.000089
664.600000, 0.000090
664.800000, 0.000091
665.000000, 0.000092
665.200000, 0.000092
665.400000, 0.000092
665.600000, 0.000093
665.800000, 0.000093
666.000000, 0.000094
666.200000, 0.000094
666.400000, 0.000095
666.600000, 0.000095
666.800000, 0.000096
667.000000, 0.000096
667.200000, 0.000097
667.400000, 0.000095
667.600000, 0.000089
667.800000, 0.000083
668.000000, 0.000078
668.200000, 0.000073
668.400000, 0.000068
668.600000, 0.000064
668.800000, 0.000060
669.000000, 0.000056
669.200000, 0.000052
669.400000, 0.000049
669.600000, 0.000046
669.800000, 0.000043
670.000000, 0.000040
670.200000, 0.000038
670.400000, 0.000036
670.600000, 0.000034
670.800000, 0.000032
671.000000, 0.000030
671.200000, 0.000028
671.400000, 0.000026
671.600000, 0.000025
671.800000, 0.000023
672.000000, 0.000022
672.200000, 0.000021
672.400000, 0.000020
672.600000, 0.000019
672.800000, 0.000018
673.000000, 0.000018
673.200000, 0.000018
673.400000, 0.000018
673.600000, 0.000017
673.800000, 0.000017
674.000000, 0.000017
674.200000, 0.000016
674.400000, 0.000016
674.600000, 0.000016
674.800000, 0.000016
675.000000, 0.000016
675.200000, 0.000016
675.400000, 0.000017
675.600000, 0.000017
675.800000, 0.000018
676.000000, 0.000018
676.200000, 0.000019
676.400000, 0.000019
676.600000, 0.000020
676.800000, 0.000021
677.000000, 0.000021
677.200000, 0.000022
677.400000, 0.000023
677.600000, 0.000026
677.800000, 0.000028
678.000000, 0.000032
678.200000, 0.000035
678.400000, 0.000039
678.600000, 0.000043
678.800000, 0.000047
679.000000, 0.000052
679.200000, 0.000058
679.400000, 0.000064
679.600000, 0.000071
679.800000, 0.000079
680.000000, 0.000084
680.200000, 0.000086
680.400000, 0.000088
680.600000, 0.000090
680.800000, 0.000092
681.000000, 0.000093
681.200000, 0.000095
681.400000, 0.000097
681.600000, 0.000099
681.800000, 0.000101
682.000000, 0.000104
682.200000, 0.000106
682.400000, 0.000108
682.600000, 0.000105
682.800000, 0.000097
683.000000, 0.000090
683.200000, 0.000083
683.400000, 0.000077
683.600000, 0.000071
683.800000, 0.000066
684.000000, 0.000061
684.200000, 0.000056
684.400000, 0.000052
684.600000, 0.000048
684.800000, 0.000045
685.000000, 0.000041
685.200000, 0.000038
685.400000, 0.000035
685.600000, 0.000032
685.800000, 0.000030
686.000000, 0.000027
686.200000, 0.000025
686.400000, 0.000023
686.600000, 0.000021
686.800000, 0.000019
687.000000, 0.000018
687.200000, 0.000016
687.400000, 0.000015
687.600000, 0.000015
687.800000, 0.000014
688.000000, 0.000014
688.200000, 0.000013
688.400000, 0.000013
688.600000, 0.000012
688.800000, 0.000012
689.000000, 0.000012
689.200000, 0.000011
689.400000, 0.000011
689.600000, 0.000010
689.800000, 0.000010
690.000000, 0.000010
690.200000, 0.000009
690.400000, 0.000009
690.600000, 0.000009
690.800000, 0.000009
691.000000, 0.000008
691.200000, 0.000008
691.400000, 0.000008
691.600000, 0.000008
691.800000, 0.000008
692.000000, 0.000007
692.200000, 0.000007
692.400000, 0.000007
692.600000, 0.000007
692.800000, 0.000007
693.000000, 0.000007
693.200000, 0.000007
693.400000, 0.000007
693.600000, 0.000007
693.800000, 0.000007
694.000000, 0.000007
694.200000, 0.000007
694.400000, 0.000007
694.600000, 0.000007
694.800000, 0.000007
695.000000, 0.000007
695.200000, 0.000007
695.400000, 0.000007
695.600000, 0.000007
695.800000, 0.000007
696.000000, 0.000007
696.200000, 0.000007
696.400000, 0.000007
696.600000, 0.000006
696.800000, 0.000006
697.000000, 0.000006
697.200000, 0.000006
697.400000, 0.000006
697.600000, 0.000007
697.800000, 0.000007
698.000000, 0.000007
698.200000, 0.000008
698.400000, 0.000008
698.600000, 0.000009
698.800000, 0.000009
699.000000, 0.000009
699.200000, 0.000010
699.400000, 0.000010
699.600000, 0.000011
699.800000, 0.000011
700.000000, 0.000012
700.200000, 0.000012
700.400000, 0.000013
700.600000, 0.000014
700.800000, 0.000014
701.000000, 0.000015
701.200000, 0.000016
701.400000, 0.000016
701.600000, 0.000017
701.800000, 0.000018
702.000000, 0.000019
702.200000, 0.000020
702.400000, 0.000021
702.600000, 0.000022
702.800000, 0.000023
703.000000, 0.000025
703.200000, 0.000027
703.400000, 0.000028
703.600000, 0.000030
703.800000, 0.000032
704.000000, 0.000035
704.200000, 0.000037
704.400000, 0.000040
704.600000, 0.000043
704.800000, 0.000045
705.000000, 0.000049
705.200000, 0.000055
705.400000, 0.000060
705.600000, 0.000067
705.800000, 0.000074
706.000000, 0.000082
706.200000, 0.000091
706.400000, 0.000100
706.600000, 0.000111
706.800000, 0.000123
707.000000, 0.000136
707.200000, 0.000150
707.400000, 0.000157
707.600000, 0.000150
707.800000, 0.000143
708.000000, 0.000137
708.200000, 0.000131
708.400000, 0.000125
708.600000, 0.000120
708.800000, 0.000114
709.000000, 0.000109
709.200000, 0.000105
709.400000, 0.000100
709.600000, 0.000096
709.800000, 0.000091
710.000000, 0.000086
710.200000, 0.000079
710.400000, 0.000073
710.600000, 0.000067
710.800000, 0.000061
711.000000, 0.000056
711.200000, 0.000052
711.400000, 0.000048
711.600000, 0.000044
711.800000, 0.000040
712.000000, 0.000037
712.200000, 0.000034
712.400000, 0.000031
712.600000, 0.000030
712.800000, 0.000029
713.000000, 0.000029
713.200000, 0.000028
713.400000, 0.000028
713.600000, 0.000028
713.800000, 0.000027
714.000000, 0.000027
714.200000, 0.000027
714.400000, 0.000026
714.600000, 0.000026
714.800000, 0.000026
715.000000, 0.000025
715.200000, 0.000025
715.400000, 0.000025
715.600000, 0.000024
715.800000, 0.000024
716.000000, 0.000024
716.200000, 0.000024
716.400000, 0.000023
716.600000, 0.000023
716.800000, 0.000023
717.000000, 0.000023
717.200000, 0.000022
717.400000, 0.000022
717.600000, 0.000022
717.800000, 0.000022
718.000000, 0.000023
718.200000, 0.000023
718.400000, 0.000023
718.600000, 0.000023
718.800000, 0.000023
719.000000, 0.000023
719.200000, 0.000023
719.400000, 0.000023
719.600000, 0.000024
719.800000, 0.000024
720.000000, 0.000024
720.200000, 0.000026
720.400000, 0.000027
720.600000, 0.000028
720.800000, 0.000030
721.000000, 0.000031
721.200000, 0.000033
721.400000, 0.000035
721.600000, 0.000037
721.800000, 0.000038
722.000000, 0.000040
722.200000, 0.000043
722.400000, 0.000045
722.600000, 0.000047
722.800000, 0.000050
723.000000, 0.000053
723.200000, 0.000056
723.400000, 0.000059
723.600000, 0.000063
723.800000, 0.000067
724.000000, 0.000071
724.200000, 0.000075
724.400000, 0.000079
724.600000, 0.000084
724.800000, 0.000089
725.000000, 0.000094
725.200000, 0.000098
725.400000, 0.000103
725.600000, 0.000109
725.800000, 0.000114
726.000000, 0.000120
726.200000, 0.000126
726.400000, 0.000132
726.600000, 0.000139
726.800000, 0.000146
727.000000, 0.000153
727.200000, 0.000161
727.400000, 0.000166
727.600000, 0.000167
727.800000, 0.000168
728.000000, 0.000169
728.200000, 0.000170
728.400000, 0.000171
728.600000, 0.000173
728.800000, 0.000174
729.000000, 0.000175
729.200000, 0.000176
729.400000, 0.000177
729.600000, 0.000178
729.800000, 0.000180
730.000000, 0.000181
730.200000, 0.000181
730.400000, 0.000182
730.600000, 0.000183
730.800000, 0.000184
731.000000, 0.000185
731.200000, 0.000185
731.400000, 0.000186
731.600000, 0.000187
731.800000, 0.000188
732.000000, 0.000189
732.200000, 0.000189
732.400000, 0.000190
732.600000, 0.000191
732.800000, 0.000193
733.000000, 0.000194
733.200000, 0.000195
733.400000, 0.000197
733.600000, 0.000198
733.800000, 0.000199
734.000000, 0.000201
734.200000, 0.000202
734.400000, 0.000203
734.600000, 0.000205
734.800000, 0.000206
735.000000, 0.000208
735.200000, 0.000210
735.400000, 0.000212
735.600000, 0.000213
735.800000, 0.000215
736.000000, 0.000217
736.200000, 0.000219
736.400000, 0.000221
736.600000, 0.000223
736.800000, 0.000225
737.000000, 0.000227
737.200000, 0.000230
737.400000, 0.000229
737.600000, 0.000227
737.800000, 0.000224
738.000000, 0.000221
738.200000, 0.000218
738.400000, 0.000216
738.600000, 0.000213
738.800000, 0.000211
739.000000, 0.000208
739.200000, 0.000205
739.400000, 0.000203
739.600000, 0.000200
739.800000, 0.000198
740.000000, 0.000196
740.200000, 0.000195
740.400000, 0.000194
740.600000, 0.000193
740.800000, 0.000192
741.000000, 0.000191
741.200000, 0.000190
741.400000, 0.000189
741.600000, 0.000187
741.800000, 0.000186
742.000000, 0.000185
742.200000, 0.000184
742.400000, 0.000183
742.600000, 0.000183
742.800000, 0.000182
743.000000, 0.000182
743.200000, 0.000182
743.400000, 0.000181
743.600000, 0.000181
743.800000, 0.000181
744.000000, 0.000180
744.200000, 0.000180
744.400000, 0.000180
744.600000, 0.000179
744.800000, 0.000179
745.000000, 0.000179
745.200000, 0.000180
745.400000, 0.000182
745.600000, 0.000183
745.800000, 0.000184
746.000000, 0.000185
746.200000, 0.000186
746.400000, 0.000187
746.600000, 0.000188
746.800000, 0.000190
747.000000, 0.000191
747.200000, 0.000192
747.400000, 0.000193
747.600000, 0.000195
747.800000, 0.000197
748.000000, 0.000199
748.200000, 0.000201
748.400000, 0.000203
748.600000, 0.000205
748.800000, 0.000207
749.000000, 0.000209
749.200000, 0.000212
749.400000, 0.000214
749.600000, 0.000216
749.800000, 0.000218
750.000000, 0.000220
750.200000, 0.000223
750.400000, 0.000225
750.600000, 0.000228
750.800000, 0.000231
751.000000, 0.000233
751.200000, 0.000236
751.400000, 0.000239
751.600000, 0.000242
751.800000, 0.000244
752.000000, 0.000247
752.200000, 0.000250
752.400000, 0.000253
752.600000, 0.000254
752.800000, 0.000252
753.000000, 0.000249
753.200000, 0.000247
753.400000, 0.000245
753.600000, 0.000243
753.800000, 0.000241
754.000000, 0.000239
754.200000, 0.000237
754.400000, 0.000235
754.600000, 0.000233
754.800000, 0.000231
755.000000, 0.000230
755.200000, 0.000228
755.400000, 0.000227
755.600000, 0.000226
755.800000, 0.000225
756.000000, 0.000223
756.200000, 0.000222
756.400000, 0.000221
756.600000, 0.000220
756.800000, 0.000218
757.000000, 0.000217
757.200000, 0.000216
757.400000, 0.000215
757.600000, 0.000213
757.800000, 0.000211
758.000000, 0.000209
758.200000, 0.000207
758.400000, 0.000205
758.600000, 0.000203
758.800000, 0.000202
759.000000, 0.000200
759.200000, 0.000198
759.400000, 0.000196
759.600000, 0.000194
759.800000, 0.000193
760.000000, 0.000193
760.200000, 0.000196
760.400000, 0.000199
760.600000, 0.000201
760.800000, 0.000204
761.000000, 0.000207
761.200000, 0.000210
761.400000, 0.000213
761.600000, 0.000216
761.800000, 0.000219
762.000000, 0.000222
762.200000, 0.000225
762.400000, 0.000228
762.600000, 0.000230
762.800000, 0.000230
763.000000, 0.000231
763.200000, 0.000231
763.400000, 0.000231
763.600000, 0.000231
763.800000, 0.000231
764.000000, 0.000231
764.200000, 0.000231
764.400000, 0.000232
764.600000, 0.000232
764.800000, 0.000232
765.000000, 0.000231
765.200000, 0.000230
765.400000, 0.000230
765.600000, 0.000229
765.800000, 0.000228
766.000000, 0.000227
766.200000, 0.000226
766.400000, 0.000225
766.600000, 0.000224
766.800000, 0.000223
767.000000, 0.000222
767.200000, 0.000221
767.400000, 0.000218
767.600000, 0.000214
767.800000, 0.000210
768.000000, 0.000206
768.200000, 0.000202
768.400000, 0.000198
768.600000, 0.000194
768.800000, 0.000190
769.000000, 0.000186
769.200000, 0.000182
769.400000, 0.000179
769.600000, 0.000175
769.800000, 0.000172
770.000000, 0.000170
770.200000, 0.000170
770.400000, 0.000170
770.600000, 0.000171
770.800000, 0.000171
771.000000, 0.000172
771.200000, 0.000172
771.400000, 0.000172
771.600000, 0.000173
771.800000, 0.000173
772.000000, 0.000173
772.200000, 0.000174
772.400000, 0.000174
772.600000, 0.000175
772.800000, 0.000176
773.000000, 0.000178
773.200000, 0.000179
773.400000, 0.000181
773.600000, 0.000182
773.800000, 0.000183
774.000000, 0.000185
774.200000, 0.000186
774.400000, 0.000188
774.600000, 0.000189
774.800000, 0.000191
775.000000, 0.000193
775.200000, 0.000195
775.400000, 0.000197
775.600000, 0.000200
775.800000, 0.000202
776.000000, 0.000204
776.200000, 0.000207
776.400000, 0.000209
776.600000, 0.000212
776.800000, 0.000214
777.000000, 0.000217
777.200000, 0.000219
777.400000, 0.000220
777.600000, 0.000219
777.800000, 0.000218
778.000000, 0.000217
778.200000, 0.000216
778.400000, 0.000215
778.600000, 0.000214
778.800000, 0.000213
779.000000, 0.000212
779.200000, 0.000211
779.400000, 0.000211
779.600000, 0.000210
779.800000, 0.000209
780.000000, 0.000210
780.200000, 0.000214
780.400000, 0.000217
780.600000, 0.000221
780.800000, 0.000225
781.000000, 0.000229
781.200000, 0.000233
781.400000, 0.000237
781.600000, 0.000241
781.800000, 0.000245
782.000000, 0.000250
782.200000, 0.000254
782.400000, 0.000258
782.600000, 0.000258
782.800000, 0.000253
783.000000, 0.000247
783.200000, 0.000242
783.400000, 0.000236
783.600000, 0.000231
783.800000, 0.000226
784.000000, 0.000221
784.200000, 0.000216
784.400000, 0.000211
784.600000, 0.000207
784.800000, 0.000202
785.000000, 0.000199
785.200000, 0.000203
785.400000, 0.000206
785.600000, 0.000209
785.800000, 0.000212
786.000000, 0.000216
786.200000, 0.000219
786.400000, 0.000222
786.600000, 0.000226
786.800000, 0.000229
787.000000, 0.000233
787.200000, 0.000236
787.400000, 0.000240
787.600000, 0.000244
787.800000, 0.000244
788.000000, 0.000241
788.200000, 0.000238
788.400000, 0.000235
788.600000, 0.000233
788.800000, 0.000230
789.000000, 0.000227
789.200000, 0.000225
789.400000, 0.000222
789.600000, 0.000220
789.800000, 0.000220
790.000000, 0.000223
790.200000, 0.000226
790.400000, 0.000230
790.600000, 0.000233
790.800000, 0.000236
791.000000, 0.000240
791.200000, 0.000243
791.400000, 0.000247
791.600000, 0.000251
791.800000, 0.000254
792.000000, 0.000258
792.200000, 0.000257
792.400000, 0.000256
792.600000, 0.000255
792.800000, 0.000254
793.000000, 0.000254
793.200000, 0.000253
793.400000, 0.000252
793.600000, 0.000251
793.800000, 0.000250
794.000000, 0.000249
794.200000, 0.000248
794.400000, 0.000247
794.600000, 0.000246
794.800000, 0.000245
795.000000, 0.000245
795.200000, 0.000244
795.400000, 0.000243
795.600000, 0.000242
795.800000, 0.000241
796.000000, 0.000240
796.200000, 0.000239
796.400000, 0.000237
796.600000, 0.000235
796.800000, 0.000233
797.000000, 0.000232
797.200000, 0.000230
797.400000, 0.000228
797.600000, 0.000226
797.800000, 0.000224
798.000000, 0.000223
798.200000, 0.000220
798.400000, 0.000217
798.600000, 0.000215
798.800000, 0.000212
799.000000, 0.000209
799.200000, 0.000206
799.400000, 0.000204
799.600000, 0.000201
799.800000, 0.000198
800.000000, 0.000196
800.200000, 0.000193
800.400000, 0.000191
800.600000, 0.000188
800.800000, 0.000186
801.000000, 0.000184
801.200000, 0.000181
801.400000, 0.000179
801.600000, 0.000177
801.800000, 0.000175
802.000000, 0.000173
802.200000, 0.000171
802.400000, 0.000169
802.600000, 0.000168
802.800000, 0.000166
803.000000, 0.000165
803.200000, 0.000163
803.400000, 0.000162
803.600000, 0.000160
803.800000, 0.000159
804.000000, 0.000157
804.200000, 0.000155
804.400000, 0.000153
804.600000, 0.000151
804.800000, 0.000149
805.000000, 0.000147
805.200000, 0.000145
805.400000, 0.000143
805.600000, 0.000141
805.800000, 0.000140
806.000000, 0.000138
806.200000, 0.000137
806.400000, 0.000139
806.600000, 0.000141
806.800000, 0.000143
807.000000, 0.000145
807.200000, 0.000147
807.400000, 0.000150
807.600000, 0.000152
807.800000, 0.000154
808.000000, 0.000156
808.200000, 0.000158
808.400000, 0.000160
808.600000, 0.000161
808.800000, 0.000163
809.000000, 0.000165
809.200000, 0.000166
809.400000, 0.000168
809.600000, 0.000170
809.800000, 0.000172
810.000000, 0.000173
810.200000, 0.000177
810.400000, 0.000181
810.600000, 0.000186
810.800000, 0.000191
811.000000, 0.000196
811.200000, 0.000201
811.400000, 0.000206
811.600000, 0.000211
811.800000, 0.000217
812.000000, 0.000222
812.200000, 0.000229
812.400000, 0.000237
812.600000, 0.000245
812.800000, 0.000253
813.000000, 0.000261
813.200000, 0.000270
813.400000, 0.000279
813.600000, 0.000288
813.800000, 0.000298
814.000000, 0.000308
814.200000, 0.000346
814.400000, 0.000394
814.600000, 0.000450
814.800000, 0.000513
815.000000, 0.000585
815.200000, 0.000667
815.400000, 0.000760
815.600000, 0.000867
815.800000, 0.000636
816.000000, 0.000258
816.200000, 0.000637
816.400000, 0.000723
816.600000, 0.000622
816.800000, 0.000653
817.000000, 0.000848
817.200000, 0.001037
817.400000, 0.000667
817.600000, 0.001233
817.800000, 0.000929
818.000000, 0.001206
818.200000, 0.001148
818.400000, 0.001302
818.600000, 0.001125
818.800000, 0.001733
819.000000, 0.001206
819.200000, 0.001705
819.400000, 0.001535
819.600000, 0.001819
819.800000, 0.001724
820.000000, 0.002139
820.200000, 0.002566
820.400000, 0.002560
820.600000, 0.002693
820.800000, 0.003190
821.000000, 0.003603
821.200000, 0.003835
821.400000, 0.004295
821.600000, 0.004861
821.800000, 0.005593
822.000000, 0.006466
822.200000, 0.006712
822.400000, 0.008538
822.600000, 0.010444
822.800000, 0.012664
823.000000, 0.015099
823.200000, 0.019396
823.400000, 0.025195
823.600000, 0.033890
823.800000, 0.047838
824.000000, 0.072276
824.200000, 0.120000
824.400000, 0.240000
824.600000, 0.779000
824.800000, 5.835000
825.000000, 9.675000
825.200000, 3.148000
825.400000, 1.025000
825.600000, 0.333000
825.800000, 0.126000
826.000000, 0.080801
826.200000, 0.057522
826.400000, 0.043209
826.600000, 0.033856
826.800000, 0.027413
827.000000, 0.022790
827.200000, 0.019663
827.400000, 0.017048
827.600000, 0.014909
827.800000, 0.013186
828.000000, 0.011801
828.200000, 0.010630
828.400000, 0.009698
828.600000, 0.008948
828.800000, 0.008315
829.000000, 0.007755
829.200000, 0.007270
829.400000, 0.006827
829.600000, 0.006540
829.800000, 0.006231
830.000000, 0.005865
830.200000, 0.005595
830.400000, 0.005442
830.600000, 0.005218
830.800000, 0.005021
831.000000, 0.004860
831.200000, 0.004695
831.400000, 0.004549
831.600000, 0.004466
831.800000, 0.004388
832.000000, 0.004320
832.200000, 0.004269
832.400000, 0.004126
832.600000, 0.004102
832.800000, 0.004082
833.000000, 0.004054
833.200000, 0.004018
833.400000, 0.003958
833.600000, 0.004021
833.800000, 0.003968
834.000000, 0.003876
834.200000, 0.003863
834.400000, 0.004070
834.600000, 0.003923
834.800000, 0.003991
835.000000, 0.004008
835.200000, 0.002281
835.400000, 0.002135
835.600000, 0.002475
835.800000, 0.002868
836.000000, 0.003324
836.200000, 0.003853
836.400000, 0.004270
836.600000, 0.004356
836.800000, 0.004444
837.000000, 0.004534
837.200000, 0.004625
837.400000, 0.004718
837.600000, 0.004822
837.800000, 0.004928
838.000000, 0.005037
838.200000, 0.005147
838.400000, 0.005261
838.600000, 0.005400
838.800000, 0.005557
839.000000, 0.005718
839.200000, 0.005884
839.400000, 0.006055
839.600000, 0.006232
839.800000, 0.006419
840.000000, 0.006611
840.200000, 0.006808
840.400000, 0.007012
840.600000, 0.007222
840.800000, 0.007480
841.000000, 0.007749
841.200000, 0.008027
841.400000, 0.008316
841.600000, 0.008615
841.800000, 0.008963
842.000000, 0.009350
842.200000, 0.009753
842.400000, 0.010173
842.600000, 0.010612
842.800000, 0.011078
843.000000, 0.011590
843.200000, 0.012126
843.400000, 0.012686
843.600000, 0.013272
843.800000, 0.013886
844.000000, 0.014572
844.200000, 0.015297
844.400000, 0.016057
844.600000, 0.016856
844.800000, 0.017694
845.000000, 0.018756
845.200000, 0.019238
845.400000, 0.019732
845.600000, 0.020239
845.800000, 0.021316
846.000000, 0.022554
846.200000, 0.023790
846.400000, 0.025252
846.600000, 0.026625
846.800000, 0.028228
847.000000, 0.029734
847.200000, 0.031685
847.400000, 0.033730
847.600000, 0.035421
847.800000, 0.037993
848.000000, 0.040071
848.200000, 0.042952
848.400000, 0.046034
848.600000, 0.048664
848.800000, 0.052238
849.000000, 0.055493
849.200000, 0.060111
849.400000, 0.063926
849.600000, 0.068466
849.800000, 0.072730
850.000000, 0.079116
850.200000, 0.085484
850.400000, 0.092158
850.600000, 0.098901
850.800000, 0.106000
851.000000, 0.116000
851.200000, 0.125000
851.400000, 0.136000
851.600000, 0.147000
851.800000, 0.160000
852.000000, 0.175000
852.200000, 0.190000
852.400000, 0.209000
852.600000, 0.229000
852.800000, 0.250000
853.000000, 0.275000
853.200000, 0.304000
853.400000, 0.335000
853.600000, 0.372000
853.800000, 0.412000
854.000000, 0.458000
854.200000, 0.510000
854.400000, 0.572000
854.600000, 0.644000
854.800000, 0.729000
855.000000, 0.825000
855.200000, 0.925000
855.400000, 1.036000
855.600000, 1.162000
855.800000, 1.322000
856.000000, 1.535000
856.200000, 1.789000
856.400000, 2.106000
856.600000, 2.493000
856.800000, 2.982000
857.000000, 3.591000
857.200000, 4.370000
857.400000, 5.360000
857.600000, 6.633000
857.800000, 8.282000
858.000000, 10.356000
858.200000, 12.942000
858.400000, 15.945000
858.600000, 19.110000
858.800000, 21.915000
859.000000, 23.579000
859.200000, 23.753000
859.400000, 22.452000
859.600000, 20.270000
859.800000, 17.751000
860.000000, 15.340000
860.200000, 13.227000
860.400000, 11.419000
860.600000, 9.947000
860.800000, 8.748000
861.000000, 7.755000
861.200000, 6.939000
861.400000, 6.270000
861.600000, 5.717000
861.800000, 5.242000
862.000000, 4.850000
862.200000, 4.520000
862.400000, 4.235000
862.600000, 3.996000
862.800000, 3.791000
863.000000, 3.615000
863.200000, 3.465000
863.400000, 3.333000
863.600000, 3.222000
863.800000, 3.126000
864.000000, 3.043000
864.200000, 2.979000
864.400000, 2.927000
864.600000, 2.877000
864.800000, 2.841000
865.000000, 2.819000
865.200000, 2.814000
865.400000, 2.810000
865.600000, 2.805000
865.800000, 2.812000
866.000000, 2.827000
866.200000, 2.846000
866.400000, 2.876000
866.600000, 2.912000
866.800000, 2.957000
867.000000, 3.012000
867.200000, 3.070000
867.400000, 3.144000
867.600000, 3.225000
867.800000, 3.315000
868.000000, 3.421000
868.200000, 3.534000
868.400000, 3.662000
868.600000, 3.801000
868.800000, 3.961000
869.000000, 4.140000
869.200000, 4.331000
869.400000, 4.551000
869.600000, 4.797000
869.800000, 5.067000
870.000000, 5.368000
870.200000, 5.708000
870.400000, 6.077000
870.600000, 6.504000
870.800000, 6.985000
871.000000, 7.525000
871.200000, 8.133000
871.400000, 8.819000
871.600000, 9.605000
871.800000, 10.515000
872.000000, 11.556000
872.200000, 12.756000
872.400000, 14.148000
872.600000, 15.770000
872.800000, 17.670000
873.000000, 19.898000
873.200000, 22.503000
873.400000, 25.617000
873.600000, 29.274000
873.800000, 33.614000
874.000000, 38.689000
874.200000, 44.588000
874.400000, 51.335000
874.600000, 58.893000
874.800000, 66.928000
875.000000, 74.914000
875.200000, 79.382000
875.400000, 84.115000
875.600000, 89.131000
875.800000, 91.389000
876.000000, 89.214000
876.200000, 84.659000
876.400000, 78.614000
876.600000, 71.951000
876.800000, 65.096000
877.000000, 58.659000
877.200000, 52.743000
877.400000, 47.498000
877.600000, 42.883000
877.800000, 38.835000
878.000000, 35.346000
878.200000, 32.333000
878.400000, 29.700000
878.600000, 27.436000
878.800000, 25.488000
879.000000, 23.781000
879.200000, 22.300000
879.400000, 20.996000
879.600000, 19.859000
879.800000, 18.844000
880.000000, 17.971000
880.200000, 17.212000
880.400000, 16.509000
880.600000, 15.917000
880.800000, 15.380000
881.000000, 14.923000
881.200000, 14.536000
881.400000, 14.190000
881.600000, 13.891000
881.800000, 13.637000
882.000000, 13.418000
882.200000, 13.240000
882.400000, 13.101000
882.600000, 13.002000
882.800000, 12.928000
883.000000, 12.888000
883.200000, 12.875000
883.400000, 12.889000
883.600000, 12.940000
883.800000, 13.013000
884.000000, 13.122000
884.200000, 13.254000
884.400000, 13.420000
884.600000, 13.626000
884.800000, 13.855000
885.000000, 14.121000
885.200000, 14.439000
885.400000, 14.765000
885.600000, 15.098000
885.800000, 15.474000
886.000000, 15.922000
886.200000, 16.438000
886.400000, 16.961000
886.600000, 17.562000
886.800000, 18.221000
887.000000, 18.931000
887.200000, 19.724000
887.400000, 20.592000
887.600000, 21.535000
887.800000, 22.587000
888.000000, 23.716000
888.200000, 24.974000
888.400000, 26.318000
888.600000, 27.818000
888.800000, 29.465000
889.000000, 31.240000
889.200000, 33.183000
889.400000, 35.280000
889.600000, 37.569000
889.800000, 40.050000
890.000000, 42.737000
890.200000, 45.599000
890.400000, 48.586000
890.600000, 51.776000
890.800000, 55.045000
891.000000, 58.387000
891.200000, 61.710000
891.400000, 64.902000
891.600000, 67.943000
891.800000, 70.639000
892.000000, 72.821000
892.200000, 74.402000
892.400000, 75.422000
892.600000, 75.650000
892.800000, 75.097000
893.000000, 73.861000
893.200000, 71.958000
893.400000, 69.540000
893.600000, 66.624000
893.800000, 63.399000
894.000000, 60.038000
894.200000, 56.607000
894.400000, 53.139000
894.600000, 49.742000
894.800000, 46.522000
895.000000, 43.402000
895.200000, 40.513000
895.400000, 37.817000
895.600000, 35.299000
895.800000, 32.938000
896.000000, 30.771000
896.200000, 28.775000
896.400000, 26.939000
896.600000, 25.243000
896.800000, 23.679000
897.000000, 22.258000
897.200000, 20.923000
897.400000, 19.719000
897.600000, 18.618000
897.800000, 17.607000
898.000000, 16.674000
898.200000, 15.807000
898.400000, 15.007000
898.600000, 14.272000
898.800000, 13.589000
899.000000, 12.956000
899.200000, 12.376000
899.400000, 11.831000
899.600000, 11.323000
899.800000, 10.858000
900.000000, 10.427000
900.200000, 10.028000
900.400000, 9.636000
900.600000, 9.281000
900.800000, 8.943000
901.000000, 8.635000
901.200000, 8.335000
901.400000, 8.065000
901.600000, 7.808000
901.800000, 7.575000
902.000000, 7.342000
902.200000, 7.133000
902.400000, 6.938000
902.600000, 6.746000
902.800000, 6.569000
903.000000, 6.398000
903.200000, 6.248000
903.400000, 6.096000
903.600000, 5.961000
903.800000, 5.827000
904.000000, 5.705000
904.200000, 5.589000
904.400000, 5.481000
904.600000, 5.379000
904.800000, 5.286000
905.000000, 5.197000
905.200000, 5.134000
905.400000, 5.072000
905.600000, 5.011000
905.800000, 4.942000
906.000000, 4.880000
906.200000, 4.821000
906.400000, 4.763000
906.600000, 4.711000
906.800000, 4.664000
907.000000, 4.616000
907.200000, 4.580000
907.400000, 4.546000
907.600000, 4.517000
907.800000, 4.484000
908.000000, 4.460000
908.200000, 4.440000
908.400000, 4.423000
908.600000, 4.411000
908.800000, 4.399000
909.000000, 4.393000
909.200000, 4.387000
909.400000, 4.392000
909.600000, 4.398000
909.800000, 4.407000
910.000000, 4.425000
910.200000, 4.441000
910.400000, 4.456000
910.600000, 4.480000
910.800000, 4.499000
911.000000, 4.531000
911.200000, 4.566000
911.400000, 4.601000
911.600000, 4.644000
911.800000, 4.690000
912.000000, 4.744000
912.200000, 4.801000
912.400000, 4.854000
912.600000, 4.919000
912.800000, 4.992000
913.000000, 5.061000
913.200000, 5.139000
913.400000, 5.233000
913.600000, 5.318000
913.800000, 5.416000
914.000000, 5.520000
914.200000, 5.628000
914.400000, 5.743000
914.600000, 5.868000
914.800000, 5.998000
915.000000, 6.147000
915.200000, 6.284000
915.400000, 6.424000
915.600000, 6.567000
915.800000, 6.723000
916.000000, 6.905000
916.200000, 7.106000
916.400000, 7.314000
916.600000, 7.524000
916.800000, 7.759000
917.000000, 8.001000
917.200000, 8.255000
917.400000, 8.533000
917.600000, 8.817000
917.800000, 9.106000
918.000000, 9.435000
918.200000, 9.758000
918.400000, 10.112000
918.600000, 10.472000
918.800000, 10.847000
919.000000, 11.255000
919.200000, 11.674000
919.400000, 12.103000
919.600000, 12.562000
919.800000, 13.030000
920.000000, 13.515000
920.200000, 14.008000
920.400000, 14.503000
920.600000, 15.010000
920.800000, 15.527000
921.000000, 16.059000
921.200000, 16.591000
921.400000, 17.120000
921.600000, 17.650000
921.800000, 18.162000
922.000000, 18.634000
922.200000, 19.104000
922.400000, 19.534000
922.600000, 19.971000
922.800000, 20.330000
923.000000, 20.679000
923.200000, 20.970000
923.400000, 21.214000
923.600000, 21.410000
923.800000, 21.541000
924.000000, 21.647000
924.200000, 21.699000
924.400000, 21.692000
924.600000, 21.632000
924.800000, 21.553000
925.000000, 21.411000
925.200000, 21.179000
925.400000, 20.950000
925.600000, 20.724000
925.800000, 20.451000
926.000000, 20.162000
926.200000, 19.848000
926.400000, 19.513000
926.600000, 19.167000
926.800000, 18.835000
927.000000, 18.493000
927.200000, 18.144000
927.400000, 17.800000
927.600000, 17.476000
927.800000, 17.146000
928.000000, 16.836000
928.200000, 16.531000
928.400000, 16.245000
928.600000, 15.949000
928.800000, 15.673000
929.000000, 15.409000
929.200000, 15.153000
929.400000, 14.916000
929.600000, 14.695000
929.800000, 14.495000
930.000000, 14.304000
930.200000, 14.125000
930.400000, 13.951000
930.600000, 13.789000
930.800000, 13.627000
931.000000, 13.502000
931.200000, 13.377000
931.400000, 13.266000
931.600000, 13.164000
931.800000, 13.079000
932.000000, 13.006000
932.200000, 12.946000
932.400000, 12.900000
932.600000, 12.846000
932.800000, 12.823000
933.000000, 12.811000
933.200000, 12.799000
933.400000, 12.806000
933.600000, 12.832000
933.800000, 12.859000
934.000000, 12.884000
934.200000, 12.946000
934.400000, 13.005000
934.600000, 13.079000
934.800000, 13.178000
935.000000, 13.265000
935.200000, 13.411000
935.400000, 13.558000
935.600000, 13.707000
935.800000, 13.825000
936.000000, 13.989000
936.200000, 14.167000
936.400000, 14.361000
936.600000, 14.568000
936.800000, 14.805000
937.000000, 15.044000
937.200000, 15.300000
937.400000, 15.589000
937.600000, 15.871000
937.800000, 16.179000
938.000000, 16.535000
938.200000, 16.894000
938.400000, 17.280000
938.600000, 17.668000
938.800000, 18.122000
939.000000, 18.567000
939.200000, 19.023000
939.400000, 19.540000
939.600000, 20.082000
939.800000, 20.656000
940.000000, 21.252000
940.200000, 21.918000
940.400000, 22.570000
940.600000, 23.253000
940.800000, 24.017000
941.000000, 24.806000
941.200000, 25.649000
941.400000, 26.540000
941.600000, 27.476000
941.800000, 28.450000
942.000000, 29.503000
942.200000, 30.561000
942.400000, 31.708000
942.600000, 32.880000
942.800000, 34.140000
943.000000, 35.486000
943.200000, 36.831000
943.400000, 38.267000
943.600000, 39.745000
943.800000, 41.297000
944.000000, 42.943000
944.200000, 44.618000
944.400000, 46.429000
944.600000, 48.181000
944.800000, 50.050000
945.000000, 51.954000
945.200000, 54.150000
945.400000, 56.438000
945.600000, 58.824000
945.800000, 61.069000
946.000000, 62.996000
946.200000, 65.221000
946.400000, 67.156000
946.600000, 69.126000
946.800000, 71.010000
947.000000, 72.937000
947.200000, 74.784000
947.400000, 76.444000
947.600000, 78.144000
947.800000, 79.661000
948.000000, 80.939000
948.200000, 82.276000
948.400000, 83.612000
948.600000, 84.465000
948.800000, 85.290000
949.000000, 86.001000
949.200000, 86.568000
949.400000, 86.821000
949.600000, 87.389000
949.800000, 87.390000
950.000000, 87.358000
950.200000, 87.424000
950.400000, 87.137000
950.600000, 86.721000
950.800000, 86.261000
951.000000, 85.797000
951.200000, 85.216000
951.400000, 84.556000
951.600000, 83.866000
951.800000, 83.227000
952.000000, 82.465000
952.200000, 81.556000
952.400000, 80.990000
952.600000, 80.107000
952.800000, 79.265000
953.000000, 78.554000
953.200000, 77.773000
953.400000, 76.961000
953.600000, 76.221000
953.800000, 75.554000
954.000000, 74.780000
954.200000, 74.085000
954.400000, 73.300000
954.600000, 72.877000
954.800000, 72.216000
955.000000, 71.609000
955.200000, 71.017000
955.400000, 70.431000
955.600000, 69.849000
955.800000, 69.402000
956.000000, 68.936000
956.200000, 68.495000
956.400000, 68.150000
956.600000, 67.815000
956.800000, 67.513000
957.000000, 67.188000
957.200000, 66.947000
957.400000, 66.701000
957.600000, 66.478000
957.800000, 66.307000
958.000000, 66.175000
958.200000, 66.088000
958.400000, 66.017000
958.600000, 65.899000
958.800000, 65.796000
959.000000, 65.797000
959.200000, 65.786000
959.400000, 65.768000
959.600000, 65.821000
959.800000, 65.874000
960.000000, 65.992000
960.200000, 66.145000
960.400000, 66.140000
960.600000, 66.239000
960.800000, 66.340000
961.000000, 66.437000
961.200000, 66.638000
961.400000, 66.796000
961.600000, 67.002000
961.800000, 67.209000
962.000000, 67.464000
962.200000, 67.673000
962.400000, 67.858000
962.600000, 68.138000
962.800000, 68.362000
963.000000, 68.570000
963.200000, 68.824000
963.400000, 69.087000
963.600000, 69.402000
963.800000, 69.733000
964.000000, 70.011000
964.200000, 70.323000
964.400000, 70.570000
964.600000, 70.970000
964.800000, 71.304000
965.000000, 71.641000
965.200000, 71.996000
965.400000, 72.353000
965.600000, 72.711000
965.800000, 73.113000
966.000000, 73.423000
966.200000, 73.721000
966.400000, 74.115000
966.600000, 74.473000
966.800000, 74.824000
967.000000, 75.156000
967.200000, 75.471000
967.400000, 75.855000
967.600000, 76.193000
967.800000, 76.576000
968.000000, 76.854000
968.200000, 77.221000
968.400000, 77.568000
968.600000, 77.960000
968.800000, 78.339000
969.000000, 78.697000
969.200000, 79.021000
969.400000, 79.363000
969.600000, 79.665000
969.800000, 80.021000
970.000000, 80.441000
970.200000, 80.789000
970.400000, 81.107000
970.600000, 81.374000
970.800000, 81.680000
971.000000, 81.977000
971.200000, 82.349000
971.400000, 82.589000
971.600000, 82.889000
971.800000, 83.190000
972.000000, 83.419000
972.200000, 83.726000
972.400000, 83.962000
972.600000, 84.197000
972.800000, 84.362000
973.000000, 84.599000
973.200000, 84.841000
973.400000, 85.063000
973.600000, 85.138000
973.800000, 85.302000
974.000000, 85.400000
974.200000, 85.534000
974.400000, 85.648000
974.600000, 85.747000
974.800000, 85.860000
975.000000, 85.926000
975.200000, 85.922000
975.400000, 85.919000
975.600000, 85.915000
975.800000, 85.846000
976.000000, 85.859000
976.200000, 85.752000
976.400000, 85.649000
976.600000, 85.554000
976.800000, 85.396000
977.000000, 85.328000
977.200000, 85.169000
977.400000, 84.943000
977.600000, 84.747000
977.800000, 84.503000
978.000000, 84.335000
978.200000, 84.012000
978.400000, 83.790000
978.600000, 83.556000
978.800000, 83.317000
979.000000, 83.006000
979.200000, 82.737000
979.400000, 82.390000
979.600000, 82.128000
979.800000, 81.893000
980.000000, 81.627000
980.200000, 81.345000
980.400000, 80.908000
980.600000, 80.519000
980.800000, 80.180000
981.000000, 79.912000
981.200000, 79.622000
981.400000, 79.308000
981.600000, 78.970000
981.800000, 78.713000
982.000000, 78.389000
982.200000, 78.104000
982.400000, 77.877000
982.600000, 77.540000
982.800000, 77.259000
983.000000, 76.987000
983.200000, 76.758000
983.400000, 76.492000
983.600000, 76.300000
983.800000, 76.120000
984.000000, 75.861000
984.200000, 75.608000
984.400000, 75.527000
984.600000, 75.430000
984.800000, 75.302000
985.000000, 75.218000
985.200000, 75.083000
985.400000, 74.948000
985.600000, 74.814000
985.800000, 74.798000
986.000000, 74.751000
986.200000, 74.765000
986.400000, 74.758000
986.600000, 74.777000
986.800000, 74.839000
987.000000, 74.955000
987.200000, 75.054000
987.400000, 75.145000
987.600000, 75.297000
987.800000, 75.466000
988.000000, 75.635000
988.200000, 75.843000
988.400000, 76.102000
988.600000, 76.348000
988.800000, 76.636000
989.000000, 76.954000
989.200000, 77.265000
989.400000, 77.637000
989.600000, 77.992000
989.800000, 78.348000
990.000000, 78.824000
990.200000, 79.297000
990.400000, 79.625000
990.600000, 80.078000
990.800000, 80.559000
991.000000, 80.992000
991.200000, 81.519000
991.400000, 82.079000
991.600000, 82.631000
991.800000, 83.086000
992.000000, 83.688000
992.200000, 84.267000
992.400000, 84.802000
992.600000, 85.373000
992.800000, 85.927000
993.000000, 86.493000
993.200000, 87.089000
993.400000, 87.670000
993.600000, 88.206000
993.800000, 88.749000
994.000000, 89.269000
994.200000, 89.785000
994.400000, 90.292000
994.600000, 90.734000
994.800000, 91.187000
995.000000, 91.596000
995.200000, 92.000000
995.400000, 92.404000
995.600000, 92.811000
995.800000, 93.130000
996.000000, 93.344000
996.200000, 93.507000
996.400000, 93.604000
996.600000, 93.669000
996.800000, 93.693000
997.000000, 93.610000
997.200000, 93.492000
997.400000, 93.298000
997.600000, 93.078000
997.800000, 92.763000
998.000000, 92.457000
998.200000, 91.999000
998.400000, 91.540000
998.600000, 91.011000
998.800000, 90.459000
999.000000, 89.832000
999.200000, 89.169000
999.400000, 88.367000
999.600000, 87.613000
999.800000, 86.806000
1000.000000, 85.944000
1000.200000, 84.996000
1000.400000, 84.011000
1000.600000, 83.058000
1000.800000, 82.002000
1001.000000, 80.911000
1001.200000, 79.886000
1001.400000, 78.832000
1001.600000, 77.748000
1001.800000, 76.643000
1002.000000, 75.486000
1002.200000, 74.359000
1002.400000, 73.292000
1002.600000, 72.151000
1002.800000, 70.963000
1003.000000, 69.877000
1003.200000, 68.761000
1003.400000, 67.642000
1003.600000, 66.581000
1003.800000, 65.537000
1004.000000, 64.464000
1004.200000, 63.471000
1004.400000, 62.428000
1004.600000, 61.474000
1004.800000, 60.597000
1005.000000, 59.692000
1005.200000, 60.438000
1005.400000, 59.471000
1005.600000, 58.557000
1005.800000, 57.661000
1006.000000, 56.737000
1006.200000, 55.887000
1006.400000, 55.055000
1006.600000, 54.183000
1006.800000, 53.413000
1007.000000, 52.635000
1007.200000, 51.861000
1007.400000, 51.161000
1007.600000, 50.458000
1007.800000, 49.753000
1008.000000, 49.134000
1008.200000, 48.531000
1008.400000, 47.893000
1008.600000, 47.318000
1008.800000, 46.712000
1009.000000, 46.170000
1009.200000, 45.690000
1009.400000, 45.147000
1009.600000, 44.649000
1009.800000, 44.237000
1010.000000, 43.792000
1010.200000, 43.334000
1010.400000, 42.930000
1010.600000, 42.489000
1010.800000, 42.150000
1011.000000, 41.791000
1011.200000, 41.409000
1011.400000, 41.090000
1011.600000, 40.785000
1011.800000, 40.462000
1012.000000, 40.184000
1012.200000, 39.906000
1012.400000, 39.632000
1012.600000, 39.441000
1012.800000, 39.231000
1013.000000, 38.994000
1013.200000, 38.812000
1013.400000, 38.621000
1013.600000, 38.436000
1013.800000, 38.275000
1014.000000, 38.122000
1014.200000, 38.008000
1014.400000, 37.921000
1014.600000, 37.757000
1014.800000, 37.653000
1015.000000, 37.556000
1015.200000, 37.451000
1015.400000, 37.416000
1015.600000, 37.354000
1015.800000, 37.252000
1016.000000, 37.253000
1016.200000, 37.162000
1016.400000, 37.177000
1016.600000, 37.201000
1016.800000, 37.180000
1017.000000, 37.241000
1017.200000, 37.291000
1017.400000, 37.243000
1017.600000, 37.344000
1017.800000, 37.357000
1018.000000, 37.377000
1018.200000, 37.478000
1018.400000, 37.535000
1018.600000, 37.607000
1018.800000, 37.741000
1019.000000, 37.802000
1019.200000, 37.899000
1019.400000, 38.021000
1019.600000, 38.119000
1019.800000, 38.273000
1020.000000, 38.402000
1020.200000, 38.521000
1020.400000, 38.684000
1020.600000, 38.879000
1020.800000, 38.994000
1021.000000, 39.190000
1021.200000, 39.338000
1021.400000, 39.520000
1021.600000, 39.744000
1021.800000, 39.928000
1022.000000, 40.150000
1022.200000, 40.379000
1022.400000, 40.559000
1022.600000, 40.863000
1022.800000, 41.087000
1023.000000, 41.293000
1023.200000, 41.541000
1023.400000, 41.785000
1023.600000, 42.078000
1023.800000, 42.375000
1024.000000, 42.612000
1024.200000, 42.915000
1024.400000, 43.243000
1024.600000, 43.474000
1024.800000, 43.835000
1025.000000, 43.971000
1025.200000, 44.081000
1025.400000, 44.416000
1025.600000, 44.742000
1025.800000, 45.010000
1026.000000, 45.408000
1026.200000, 45.834000
1026.400000, 46.064000
1026.600000, 46.445000
1026.800000, 46.798000
1027.000000, 47.118000
1027.200000, 47.526000
1027.400000, 47.908000
1027.600000, 48.375000
1027.800000, 48.761000
1028.000000, 49.068000
1028.200000, 49.561000
1028.400000, 49.950000
1028.600000, 50.298000
1028.800000, 50.810000
1029.000000, 51.181000
1029.200000, 51.642000
1029.400000, 52.101000
1029.600000, 52.546000
1029.800000, 53.002000
1030.000000, 53.435000
1030.200000, 53.888000
1030.400000, 54.410000
1030.600000, 54.826000
1030.800000, 55.399000
1031.000000, 55.911000
1031.200000, 56.346000
1031.400000, 56.842000
1031.600000, 57.351000
1031.800000, 57.946000
1032.000000, 58.480000
1032.200000, 58.887000
1032.400000, 59.471000
1032.600000, 60.026000
1032.800000, 60.563000
1033.000000, 61.135000
1033.200000, 61.664000
1033.400000, 62.214000
1033.600000, 62.816000
1033.800000, 63.333000
1034.000000, 63.951000
1034.200000, 64.469000
1034.400000, 64.986000
1034.600000, 65.638000
1034.800000, 66.174000
1035.000000, 66.760000
1035.200000, 67.336000
1035.400000, 67.868000
1035.600000, 68.479000
1035.800000, 69.000000
1036.000000, 69.614000
1036.200000, 70.214000
1036.400000, 70.791000
1036.600000, 71.377000
1036.800000, 71.891000
1037.000000, 72.511000
1037.200000, 73.049000
1037.400000, 73.563000
1037.600000, 74.112000
1037.800000, 74.690000
1038.000000, 75.227000
1038.200000, 75.834000
1038.400000, 76.305000
1038.600000, 76.745000
1038.800000, 77.333000
1039.000000, 77.790000
1039.200000, 78.203000
1039.400000, 78.717000
1039.600000, 79.175000
1039.800000, 79.676000
1040.000000, 80.097000
1040.200000, 80.480000
1040.400000, 80.819000
1040.600000, 81.214000
1040.800000, 81.582000
1041.000000, 81.989000
1041.200000, 82.206000
1041.400000, 82.464000
1041.600000, 82.771000
1041.800000, 83.076000
1042.000000, 83.323000
1042.200000, 83.574000
1042.400000, 83.726000
1042.600000, 83.912000
1042.800000, 84.010000
1043.000000, 84.167000
1043.200000, 84.291000
1043.400000, 84.404000
1043.600000, 84.414000
1043.800000, 84.477000
1044.000000, 84.477000
1044.200000, 84.447000
1044.400000, 84.483000
1044.600000, 84.457000
1044.800000, 84.257000
1045.000000, 84.318000
1045.200000, 84.138000
1045.400000, 84.123000
1045.600000, 83.993000
1045.800000, 83.679000
1046.000000, 83.613000
1046.200000, 83.349000
1046.400000, 83.175000
1046.600000, 82.877000
1046.800000, 82.745000
1047.000000, 82.392000
1047.200000, 82.174000
1047.400000, 81.985000
1047.600000, 81.576000
1047.800000, 81.326000
1048.000000, 80.992000
1048.200000, 80.802000
1048.400000, 80.531000
1048.600000, 80.150000
1048.800000, 79.794000
1049.000000, 79.570000
1049.200000, 79.184000
1049.400000, 78.781000
1049.600000, 78.481000
1049.800000, 78.121000
1050.000000, 77.821000
1050.200000, 77.473000
1050.400000, 77.165000
1050.600000, 76.828000
1050.800000, 76.544000
1051.000000, 76.168000
1051.200000, 75.724000
1051.400000, 75.500000
1051.600000, 75.193000
1051.800000, 74.925000
1052.000000, 74.716000
1052.200000, 74.347000
1052.400000, 74.055000
1052.600000, 73.814000
1052.800000, 73.485000
1053.000000, 73.275000
1053.200000, 72.967000
1053.400000, 72.795000
1053.600000, 72.559000
1053.800000, 72.292000
1054.000000, 72.100000
1054.200000, 71.779000
1054.400000, 71.794000
1054.600000, 71.423000
1054.800000, 71.295000
1055.000000, 71.183000
1055.200000, 71.035000
1055.400000, 70.958000
1055.600000, 70.812000
1055.800000, 70.620000
1056.000000, 70.582000
1056.200000, 70.420000
1056.400000, 70.384000
1056.600000, 70.343000
1056.800000, 70.206000
1057.000000, 70.142000
1057.200000, 70.058000
1057.400000, 70.049000
1057.600000, 70.091000
1057.800000, 69.971000
1058.000000, 69.979000
1058.200000, 69.883000
1058.400000, 69.959000
1058.600000, 69.970000
1058.800000, 70.105000
1059.000000, 70.023000
1059.200000, 70.091000
1059.400000, 70.160000
1059.600000, 70.074000
1059.800000, 70.296000
1060.000000, 70.400000
1060.200000, 70.481000
1060.400000, 70.574000
1060.600000, 70.555000
1060.800000, 70.734000
1061.000000, 70.856000
1061.200000, 70.930000
1061.400000, 70.992000
1061.600000, 71.203000
1061.800000, 71.267000
1062.000000, 71.521000
1062.200000, 71.598000
1062.400000, 71.677000
1062.600000, 71.750000
1062.800000, 71.771000
1063.000000, 72.098000
1063.200000, 72.249000
1063.400000, 72.418000
1063.600000, 72.657000
1063.800000, 72.620000
1064.000000, 72.920000
1064.200000, 73.124000
1064.400000, 73.135000
1064.600000, 73.329000
1064.800000, 73.457000
1065.000000, 73.613000
1065.200000, 73.758000
1065.400000, 73.839000
1065.600000, 73.997000
1065.800000, 74.115000
1066.000000, 74.232000
1066.200000, 74.344000
1066.400000, 74.358000
1066.600000, 74.555000
1066.800000, 74.601000
1067.000000, 74.666000
1067.200000, 74.828000
1067.400000, 74.899000
1067.600000, 74.940000
1067.800000, 74.965000
1068.000000, 74.902000
1068.200000, 74.970000
1068.400000, 74.966000
1068.600000, 74.988000
1068.800000, 74.960000
1069.000000, 75.036000
1069.200000, 75.107000
1069.400000, 74.977000
1069.600000, 74.847000
1069.800000, 75.113000
1070.000000, 74.854000
1070.200000, 74.825000
1070.400000, 74.730000
1070.600000, 74.655000
1070.800000, 74.543000
1071.000000, 74.419000
1071.200000, 74.392000
1071.400000, 74.371000
1071.600000, 74.193000
1071.800000, 74.067000
1072.000000, 73.861000
1072.200000, 73.759000
1072.400000, 73.644000
1072.600000, 73.443000
1072.800000, 73.320000
1073.000000, 73.081000
1073.200000, 72.979000
1073.400000, 72.912000
1073.600000, 72.747000
1073.800000, 72.493000
1074.000000, 72.381000
1074.200000, 72.156000
1074.400000, 72.031000
1074.600000, 71.799000
1074.800000, 71.703000
1075.000000, 71.422000
1075.200000, 71.236000
1075.400000, 71.206000
1075.600000, 70.939000
1075.800000, 70.717000
1076.000000, 70.519000
1076.200000, 70.343000
1076.400000, 70.293000
1076.600000, 70.184000
1076.800000, 69.978000
1077.000000, 69.762000
1077.200000, 69.642000
1077.400000, 69.504000
1077.600000, 69.401000
1077.800000, 69.259000
1078.000000, 69.119000
1078.200000, 69.016000
1078.400000, 68.849000
1078.600000, 68.777000
1078.800000, 68.689000
1079.000000, 68.599000
1079.200000, 68.460000
1079.400000, 68.464000
1079.600000, 68.477000
1079.800000, 68.294000
1080.000000, 68.292000
1080.200000, 68.342000
1080.400000, 68.325000
1080.600000, 68.335000
1080.800000, 68.365000
1081.000000, 68.322000
1081.200000, 68.201000
1081.400000, 68.394000
1081.600000, 68.283000
1081.800000, 68.475000
1082.000000, 68.395000
1082.200000, 68.384000
1082.400000, 68.600000
1082.600000, 68.661000
1082.800000, 68.769000
1083.000000, 68.732000
1083.200000, 68.956000
1083.400000, 68.984000
1083.600000, 69.253000
1083.800000, 69.421000
1084.000000, 69.546000
1084.200000, 69.801000
1084.400000, 69.845000
1084.600000, 70.101000
1084.800000, 70.118000
1085.000000, 70.403000
1085.200000, 70.652000
1085.400000, 70.980000
1085.600000, 71.283000
1085.800000, 71.592000
1086.000000, 71.842000
1086.200000, 71.904000
1086.400000, 72.377000
1086.600000, 72.420000
1086.800000, 72.860000
1087.000000, 73.170000
1087.200000, 73.521000
1087.400000, 73.739000
1087.600000, 74.097000
1087.800000, 74.458000
1088.000000, 74.727000
1088.200000, 75.075000
1088.400000, 75.443000
1088.600000, 75.752000
1088.800000, 76.168000
1089.000000, 76.533000
1089.200000, 76.934000
1089.400000, 77.143000
1089.600000, 77.575000
1089.800000, 77.948000
1090.000000, 78.222000
1090.200000, 78.395000
1090.400000, 79.043000
1090.600000, 79.164000
1090.800000, 79.527000
1091.000000, 79.824000
1091.200000, 80.225000
1091.400000, 80.573000
1091.600000, 80.833000
1091.800000, 81.490000
1092.000000, 81.830000
1092.200000, 82.124000
1092.400000, 82.297000
1092.600000, 82.601000
1092.800000, 82.837000
1093.000000, 83.286000
1093.200000, 83.595000
1093.400000, 83.942000
1093.600000, 84.019000
1093.800000, 84.338000
1094.000000, 84.585000
1094.200000, 84.580000
1094.400000, 84.813000
1094.600000, 85.235000
1094.800000, 85.304000
1095.000000, 85.282000
1095.200000, 85.550000
1095.400000, 85.571000
1095.600000, 85.610000
1095.800000, 85.875000
1096.000000, 85.721000
1096.200000, 85.929000
1096.400000, 85.852000
1096.600000, 86.092000
1096.800000, 85.916000
1097.000000, 85.962000
1097.200000, 85.861000
1097.400000, 85.816000
1097.600000, 85.915000
1097.800000, 85.719000
1098.000000, 85.385000
1098.200000, 85.302000
1098.400000, 85.384000
1098.600000, 85.128000
1098.800000, 84.950000
1099.000000, 84.516000
1099.200000, 84.641000
1099.400000, 84.170000
1099.600000, 83.995000
1099.800000, 83.738000
1100.000000, 83.452000
1100.200000, 83.289000
1100.400000, 82.854000
1100.600000, 82.876000
1100.800000, 82.174000
1101.000000, 81.792000
1101.200000, 81.824000
1101.400000, 81.232000
1101.600000, 81.078000
1101.800000, 80.624000
1102.000000, 80.252000
1102.200000, 79.811000
1102.400000, 79.604000
1102.600000, 78.946000
1102.800000, 78.779000
1103.000000, 78.409000
1103.200000, 78.125000
1103.400000, 77.622000
1103.600000, 77.204000
1103.800000, 76.744000
1104.000000, 76.374000
1104.200000, 76.379000
1104.400000, 75.769000
1104.600000, 75.478000
1104.800000, 75.010000
1105.000000, 74.925000
1105.200000, 74.470000
1105.400000, 74.067000
1105.600000, 73.755000
1105.800000, 73.380000
1106.000000, 73.063000
1106.200000, 72.884000
1106.400000, 72.356000
1106.600000, 72.081000
1106.800000, 71.860000
1107.000000, 71.522000
1107.200000, 71.202000
1107.400000, 70.823000
1107.600000, 70.812000
1107.800000, 70.549000
1108.000000, 69.984000
1108.200000, 69.940000
1108.400000, 69.444000
1108.600000, 69.417000
1108.800000, 69.089000
1109.000000, 68.767000
1109.200000, 68.656000
1109.400000, 68.511000
1109.600000, 68.146000
1109.800000, 68.136000
1110.000000, 67.833000
1110.200000, 67.626000
1110.400000, 67.483000
1110.600000, 67.438000
1110.800000, 67.090000
1111.000000, 67.182000
1111.200000, 66.727000
1111.400000, 66.500000
1111.600000, 66.504000
1111.800000, 66.561000
1112.000000, 66.424000
1112.200000, 66.138000
1112.400000, 66.167000
1112.600000, 66.008000
1112.800000, 65.796000
1113.000000, 65.574000
1113.200000, 65.557000
1113.400000, 65.592000
1113.600000, 65.608000
1113.800000, 65.525000
1114.000000, 65.341000
1114.200000, 65.293000
1114.400000, 65.223000
1114.600000, 65.131000
1114.800000, 65.195000
1115.000000, 65.050000
1115.200000, 65.056000
1115.400000, 64.974000
1115.600000, 64.550000
1115.800000, 64.758000
1116.000000, 64.606000
1116.200000, 64.956000
1116.400000, 64.555000
1116.600000, 64.533000
1116.800000, 64.361000
1117.000000, 64.367000
1117.200000, 64.399000
1117.400000, 64.369000
1117.600000, 64.339000
1117.800000, 64.368000
1118.000000, 64.254000
1118.200000, 64.134000
1118.400000, 64.181000
1118.600000, 63.919000
1118.800000, 63.913000
1119.000000, 63.910000
1119.200000, 63.854000
1119.400000, 63.911000
1119.600000, 63.884000
1119.800000, 63.641000
1120.000000, 63.513000
1120.200000, 63.315000
1120.400000, 63.244000
1120.600000, 63.145000
1120.800000, 63.084000
1121.000000, 63.182000
1121.200000, 63.041000
1121.400000, 62.901000
1121.600000, 62.761000
1121.800000, 62.622000
1122.000000, 62.482000
1122.200000, 62.318000
1122.400000, 62.156000
1122.600000, 61.993000
1122.800000, 61.831000
1123.000000, 61.669000
1123.200000, 61.471000
1123.400000, 61.274000
1123.600000, 61.078000
1123.800000, 60.882000
1124.000000, 60.686000
1124.200000, 60.470000
1124.400000, 60.255000
1124.600000, 60.040000
1124.800000, 59.826000
1125.000000, 59.613000
1125.200000, 59.388000
1125.400000, 59.164000
1125.600000, 58.941000
1125.800000, 58.719000
1126.000000, 58.498000
1126.200000, 58.245000
1126.400000, 57.994000
1126.600000, 57.744000
1126.800000, 57.495000
1127.000000, 57.247000
1127.200000, 57.001000
1127.400000, 56.755000
1127.600000, 56.510000
1127.800000, 56.267000
1128.000000, 56.024000
1128.200000, 55.759000
1128.400000, 55.495000
1128.600000, 55.232000
1128.800000, 54.971000
1129.000000, 54.711000
1129.200000, 54.472000
1129.400000, 54.235000
1129.600000, 53.999000
1129.800000, 53.764000
1130.000000, 53.530000
1130.200000, 53.293000
1130.400000, 53.058000
1130.600000, 52.824000
1130.800000, 52.591000
1131.000000, 52.359000
1131.200000, 52.147000
1131.400000, 51.936000
1131.600000, 51.726000
1131.800000, 51.517000
1132.000000, 51.309000
1132.200000, 51.107000
1132.400000, 50.907000
1132.600000, 50.707000
1132.800000, 50.508000
1133.000000, 50.312000
1133.200000, 50.154000
1133.400000, 49.996000
1133.600000, 49.839000
1133.800000, 49.682000
1134.000000, 49.527000
1134.200000, 49.406000
1134.400000, 49.285000
1134.600000, 49.165000
1134.800000, 49.045000
1135.000000, 48.926000
1135.200000, 48.850000
1135.400000, 48.775000
1135.600000, 48.699000
1135.800000, 48.624000
1136.000000, 48.549000
1136.200000, 48.492000
1136.400000, 48.436000
1136.600000, 48.379000
1136.800000, 48.322000
1137.000000, 48.267000
1137.200000, 48.238000
1137.400000, 48.210000
1137.600000, 48.182000
1137.800000, 48.153000
1138.000000, 48.127000
1138.200000, 48.157000
1138.400000, 48.187000
1138.600000, 48.218000
1138.800000, 48.248000
1139.000000, 48.279000
1139.200000, 48.362000
1139.400000, 48.445000
1139.600000, 48.528000
1139.800000, 48.612000
1140.000000, 48.696000
1140.200000, 48.816000
1140.400000, 48.937000
1140.600000, 49.058000
1140.800000, 49.179000
1141.000000, 49.303000
1141.200000, 49.469000
1141.400000, 49.637000
1141.600000, 49.805000
1141.800000, 49.973000
1142.000000, 50.144000
1142.200000, 50.355000
1142.400000, 50.567000
1142.600000, 50.779000
1142.800000, 50.993000
1143.000000, 51.209000
1143.200000, 51.462000
1143.400000, 51.716000
1143.600000, 51.971000
1143.800000, 52.227000
1144.000000, 52.489000
1144.200000, 52.853000
1144.400000, 53.220000
1144.600000, 53.590000
1144.800000, 53.962000
1145.000000, 54.336000
1145.200000, 54.698000
1145.400000, 55.062000
1145.600000, 55.429000
1145.800000, 55.798000
1146.000000, 56.170000
1146.200000, 56.590000
1146.400000, 57.013000
1146.600000, 57.439000
1146.800000, 57.869000
1147.000000, 58.302000
1147.200000, 58.778000
1147.400000, 59.258000
1147.600000, 59.742000
1147.800000, 60.230000
1148.000000, 60.722000
1148.200000, 61.276000
1148.400000, 61.835000
1148.600000, 62.399000
1148.800000, 62.968000
1149.000000, 63.542000
1149.200000, 64.123000
1149.400000, 64.708000
1149.600000, 65.299000
1149.800000, 65.896000
1150.000000, 66.496000
1150.200000, 67.079000
1150.400000, 67.667000
1150.600000, 68.261000
1150.800000, 68.859000
1151.000000, 69.465000
1151.200000, 70.122000
1151.400000, 70.786000
1151.600000, 71.455000
1151.800000, 72.131000
1152.000000, 72.813000
1152.200000, 73.481000
1152.400000, 74.155000
1152.600000, 74.835000
1152.800000, 75.521000
1153.000000, 76.211000
1153.200000, 76.859000
1153.400000, 77.511000
1153.600000, 78.170000
1153.800000, 78.834000
1154.000000, 79.503000
1154.200000, 80.177000
1154.400000, 80.858000
1154.600000, 81.543000
1154.800000, 82.235000
1155.000000, 82.932000
1155.200000, 83.527000
1155.400000, 84.126000
1155.600000, 84.729000
1155.800000, 85.337000
1156.000000, 85.949000
1156.200000, 86.500000
1156.400000, 87.055000
1156.600000, 87.614000
1156.800000, 88.176000
1157.000000, 88.740000
1157.200000, 89.214000
1157.400000, 89.691000
1157.600000, 90.170000
1157.800000, 90.652000
1158.000000, 91.135000
1158.200000, 91.517000
1158.400000, 91.899000
1158.600000, 92.284000
1158.800000, 92.670000
1159.000000, 93.056000
1159.200000, 93.343000
1159.400000, 93.631000
1159.600000, 93.919000
1159.800000, 94.209000
1160.000000, 94.497000
1160.200000, 94.671000
1160.400000, 94.845000
1160.600000, 95.019000
1160.800000, 95.194000
1161.000000, 95.367000
1161.200000, 95.454000
1161.400000, 95.541000
1161.600000, 95.628000
1161.800000, 95.716000
1162.000000, 95.799000
1162.200000, 95.771000
1162.400000, 95.742000
1162.600000, 95.714000
1162.800000, 95.685000
1163.000000, 95.655000
1163.200000, 95.569000
1163.400000, 95.483000
1163.600000, 95.397000
1163.800000, 95.312000
1164.000000, 95.223000
1164.200000, 95.076000
1164.400000, 94.928000
1164.600000, 94.781000
1164.800000, 94.634000
1165.000000, 94.487000
1165.200000, 94.293000
1165.400000, 94.100000
1165.600000, 93.906000
1165.800000, 93.714000
1166.000000, 93.521000
1166.200000, 93.331000
1166.400000, 93.141000
1166.600000, 92.952000
1166.800000, 92.763000
1167.000000, 92.573000
1167.200000, 92.347000
1167.400000, 92.123000
1167.600000, 91.898000
1167.800000, 91.675000
1168.000000, 91.453000
1168.200000, 91.271000
1168.400000, 91.089000
1168.600000, 90.908000
1168.800000, 90.727000
1169.000000, 90.545000
1169.200000, 90.352000
1169.400000, 90.158000
1169.600000, 89.965000
1169.800000, 89.773000
1170.000000, 89.581000
1170.200000, 89.415000
1170.400000, 89.251000
1170.600000, 89.086000
1170.800000, 88.922000
1171.000000, 88.759000
1171.200000, 88.650000
1171.400000, 88.541000
1171.600000, 88.432000
1171.800000, 88.323000
1172.000000, 88.214000
1172.200000, 88.097000
1172.400000, 87.979000
1172.600000, 87.862000
1172.800000, 87.745000
1173.000000, 87.629000
1173.200000, 87.600000
1173.400000, 87.572000
1173.600000, 87.544000
1173.800000, 87.516000
1174.000000, 87.487000
1174.200000, 87.441000
1174.400000, 87.395000
1174.600000, 87.349000
1174.800000, 87.303000
1175.000000, 87.260000
1175.200000, 87.291000
1175.400000, 87.321000
1175.600000, 87.352000
1175.800000, 87.382000
1176.000000, 87.413000
1176.200000, 87.432000
1176.400000, 87.452000
1176.600000, 87.471000
1176.800000, 87.491000
1177.000000, 87.512000
1177.200000, 87.583000
1177.400000, 87.655000
1177.600000, 87.726000
1177.800000, 87.798000
1178.000000, 87.869000
1178.200000, 87.933000
1178.400000, 87.997000
1178.600000, 88.061000
1178.800000, 88.124000
1179.000000, 88.189000
1179.200000, 88.287000
1179.400000, 88.385000
1179.600000, 88.483000
1179.800000, 88.582000
1180.000000, 88.679000
1180.200000, 88.748000
1180.400000, 88.816000
1180.600000, 88.884000
1180.800000, 88.952000
1181.000000, 89.021000
1181.200000, 89.117000
1181.400000, 89.213000
1181.600000, 89.309000
1181.800000, 89.405000
1182.000000, 89.500000
1182.200000, 89.549000
1182.400000, 89.599000
1182.600000, 89.649000
1182.800000, 89.699000
1183.000000, 89.749000
1183.200000, 89.803000
1183.400000, 89.858000
1183.600000, 89.913000
1183.800000, 89.968000
1184.000000, 90.021000
1184.200000, 90.024000
1184.400000, 90.028000
1184.600000, 90.031000
1184.800000, 90.035000
1185.000000, 90.038000
1185.200000, 90.024000
1185.400000, 90.011000
1185.600000, 89.997000
1185.800000, 89.983000
1186.000000, 89.968000
1186.200000, 89.896000
1186.400000, 89.824000
1186.600000, 89.752000
1186.800000, 89.680000
1187.000000, 89.608000
1187.200000, 89.531000
1187.400000, 89.453000
1187.600000, 89.376000
1187.800000, 89.299000
1188.000000, 89.219000
1188.200000, 89.061000
1188.400000, 88.902000
1188.600000, 88.744000
1188.800000, 88.587000
1189.000000, 88.429000
1189.200000, 88.271000
1189.400000, 88.114000
1189.600000, 87.957000
1189.800000, 87.800000
1190.000000, 87.642000
1190.200000, 87.429000
1190.400000, 87.217000
1190.600000, 87.005000
1190.800000, 86.794000
1191.000000, 86.583000
1191.200000, 86.354000
1191.400000, 86.126000
1191.600000, 85.899000
1191.800000, 85.672000
1192.000000, 85.444000
1192.200000, 85.192000
1192.400000, 84.942000
1192.600000, 84.691000
1192.800000, 84.442000
1193.000000, 84.193000
1193.200000, 83.918000
1193.400000, 83.645000
1193.600000, 83.373000
1193.800000, 83.101000
1194.000000, 82.832000
1194.200000, 82.581000
1194.400000, 82.331000
1194.600000, 82.082000
1194.800000, 81.834000
1195.000000, 81.585000
1195.200000, 81.286000
1195.400000, 80.987000
1195.600000, 80.689000
1195.800000, 80.393000
1196.000000, 80.098000
1196.200000, 79.842000
1196.400000, 79.586000
1196.600000, 79.331000
1196.800000, 79.077000
1197.000000, 78.824000
1197.200000, 78.568000
1197.400000, 78.314000
1197.600000, 78.060000
1197.800000, 77.807000
1198.000000, 77.554000
1198.200000, 77.277000
1198.400000, 77.000000
1198.600000, 76.725000
1198.800000, 76.451000
1199.000000, 76.178000
1199.200000, 75.972000
1199.400000, 75.766000
1199.600000, 75.560000
1199.800000, 75.355000
1200.000000, 75.151000
