# Wavelength  (nm), Transmission (%)
200.000000, 0.457092
201.000000, 0.453955
202.000000, 0.332912
203.000000, 0.278130
204.000000, 0.231020
205.000000, 0.160541
206.000000, 0.156945
207.000000, 0.109615
208.000000, 0.097976
209.000000, 0.077385
210.000000, 0.086631
211.000000, 0.051251
212.000000, 0.041035
213.000000, 0.049238
214.000000, 0.036333
215.000000, 0.030433
216.000000, 0.026399
217.000000, 0.025998
218.000000, 0.027546
219.000000, 0.023852
220.000000, 0.015161
221.000000, 0.015307
222.000000, 0.014974
223.000000, 0.009929
224.000000, 0.004824
225.000000, 0.008951
226.000000, 0.004646
227.000000, 0.010471
228.000000, 0.011667
229.000000, 0.006465
230.000000, 0.006077
231.000000, 0.008825
232.000000, 0.000950
233.000000, 0.004767
234.000000, 0.007548
235.000000, 0.004373
236.000000, 0.004820
237.000000, 0.008925
238.000000, 0.002160
239.000000, 0.002604
240.000000, 0.004787
241.000000, 0.000328
242.000000, 0.004376
243.000000, 0.004502
244.000000, 0.001653
245.000000, 0.001104
246.000000, 0.004093
247.000000, 0.004655
248.000000, 0.001332
249.000000, 0.001446
250.000000, 0.000223
251.000000, 0.000893
252.000000, 0.005140
253.000000, 0.001230
254.000000, 0.001567
255.000000, 0.002578
256.000000, 0.000785
257.000000, 0.001235
258.000000, 0.004156
259.000000, 0.000225
260.000000, 0.001800
261.000000, 0.000338
262.000000, 0.000564
263.000000, 0.001852
264.000000, 0.004516
265.000000, 0.002939
266.000000, 0.000906
267.000000, 0.003399
268.000000, 0.000113
269.000000, 0.001816
270.000000, 0.004884
271.000000, 0.005113
272.000000, 0.001593
273.000000, 0.002163
274.000000, 0.001252
275.000000, 0.001481
276.000000, 0.002164
277.000000, 0.000912
278.000000, 0.002052
279.000000, 0.001710
280.000000, 0.000912
281.000000, 0.002736
282.000000, 0.002850
283.000000, 0.004332
284.000000, 0.002735
285.000000, 0.002393
286.000000, 0.001710
287.000000, 0.000342
288.000000, 0.002394
289.000000, 0.001254
290.000000, 0.002507
291.000000, 0.002622
292.000000, 0.001824
293.000000, 0.003988
294.000000, 0.006037
295.000000, 0.005925
296.000000, 0.004215
297.000000, 0.000342
298.000000, 0.000114
299.000000, 0.002164
300.000000, 0.001935
301.000000, 0.003643
302.000000, 0.003870
303.000000, 0.004554
304.000000, 0.002731
305.000000, 0.004893
306.000000, 0.006825
307.000000, 0.003298
308.000000, 0.002161
309.000000, 0.003979
310.000000, 0.005115
311.000000, 0.013293
312.000000, 0.027379
313.000000, 0.070061
314.000000, 0.139545
315.000000, 0.168974
316.000000, 0.118730
317.000000, 0.044814
318.000000, 0.015528
319.000000, 0.014859
320.000000, 0.008328
321.000000, 0.010242
322.000000, 0.007651
323.000000, 0.014170
324.000000, 0.014726
325.000000, 0.012701
326.000000, 0.005282
327.000000, 0.012473
328.000000, 0.023590
329.000000, 0.072851
330.000000, 0.118400
331.000000, 0.135653
332.000000, 0.142820
333.000000, 0.116004
334.000000, 0.053711
335.000000, 0.034063
336.000000, 0.026672
337.000000, 0.034164
338.000000, 0.101583
339.000000, 0.236158
340.000000, 0.388160
341.000000, 0.644352
342.000000, 0.729394
343.000000, 0.427867
344.000000, 0.111088
345.000000, 0.069512
346.000000, 0.141754
347.000000, 0.217919
348.000000, 0.409184
349.000000, 1.020836
350.000000, 1.955846
351.000000, 2.606439
352.000000, 2.855165
353.000000, 2.915616
354.000000, 2.390642
355.000000, 1.351249
356.000000, 0.484536
357.000000, 0.101855
358.000000, 0.023700
359.000000, 0.014459
360.000000, 0.005893
361.000000, 0.002445
362.000000, 0.004556
363.000000, 0.006446
364.000000, 0.004887
365.000000, 0.003442
366.000000, 0.003773
367.000000, 0.003217
368.000000, 0.005100
369.000000, 0.005764
370.000000, 0.004322
371.000000, 0.002879
372.000000, 0.004648
373.000000, 0.006084
374.000000, 0.010062
375.000000, 0.013927
376.000000, 0.012699
377.000000, 0.007397
378.000000, 0.010388
379.000000, 0.011801
380.000000, 0.010805
381.000000, 0.009477
382.000000, 0.002424
383.000000, 0.004295
384.000000, 0.008037
385.000000, 0.018166
386.000000, 0.040817
387.000000, 0.220312
388.000000, 2.637198
389.000000, 15.204396
390.000000, 43.370881
391.000000, 74.743608
392.000000, 92.131062
393.000000, 96.710887
394.000000, 97.581193
395.000000, 98.003590
396.000000, 98.316093
397.000000, 98.537986
398.000000, 98.603245
399.000000, 98.609491
400.000000, 98.550769
401.000000, 98.413699
402.000000, 97.996316
403.000000, 97.512546
404.000000, 97.309189
405.000000, 97.396061
406.000000, 97.562688
407.000000, 97.787117
408.000000, 97.903225
409.000000, 97.985834
410.000000, 98.077880
411.000000, 98.095966
412.000000, 97.942647
413.000000, 97.671388
414.000000, 97.471468
415.000000, 97.379926
416.000000, 97.503424
417.000000, 97.945442
418.000000, 98.341610
419.000000, 98.528307
420.000000, 98.689108
421.000000, 98.750434
422.000000, 98.720991
423.000000, 98.696420
424.000000, 98.648226
425.000000, 98.585910
426.000000, 98.537150
427.000000, 98.488465
428.000000, 98.548413
429.000000, 98.585074
430.000000, 98.512871
431.000000, 98.461813
432.000000, 98.395257
433.000000, 98.251641
434.000000, 98.179966
435.000000, 98.201720
436.000000, 98.247527
437.000000, 98.401115
438.000000, 98.594506
439.000000, 98.682398
440.000000, 98.661336
441.000000, 98.574026
442.000000, 98.387511
443.000000, 98.225967
444.000000, 98.273081
445.000000, 98.355315
446.000000, 98.261450
447.000000, 98.035418
448.000000, 97.825421
449.000000, 97.740228
450.000000, 97.702797
451.000000, 97.814131
452.000000, 98.229647
453.000000, 98.663781
454.000000, 98.813605
455.000000, 98.738239
456.000000, 98.704701
457.000000, 98.762631
458.000000, 98.829428
459.000000, 98.959206
460.000000, 99.041062
461.000000, 99.017590
462.000000, 98.998321
463.000000, 99.006853
464.000000, 98.956394
465.000000, 98.886050
466.000000, 98.784865
467.000000, 98.721859
468.000000, 98.785474
469.000000, 98.827045
470.000000, 98.780466
471.000000, 98.751515
472.000000, 98.697415
473.000000, 98.589086
474.000000, 98.550161
475.000000, 98.551667
476.000000, 98.425688
477.000000, 98.199159
478.000000, 97.953642
479.000000, 97.855120
480.000000, 98.023291
481.000000, 98.322661
482.000000, 98.422560
483.000000, 98.361129
484.000000, 98.440043
485.000000, 98.618751
486.000000, 98.767732
487.000000, 98.802633
488.000000, 98.695612
489.000000, 98.528741
490.000000, 98.337666
491.000000, 98.181447
492.000000, 98.026799
493.000000, 97.757114
494.000000, 97.443525
495.000000, 97.330259
496.000000, 97.280133
497.000000, 93.903269
498.000000, 77.272363
499.000000, 44.674334
500.000000, 14.473191
501.000000, 1.836066
502.000000, 0.074896
503.000000, 0.022972
504.000000, 0.000716
505.000000, 0.000340
506.000000, 0.000278
507.000000, 0.000215
508.000000, 0.000152
509.000000, 0.000287
510.000000, 0.000591
511.000000, 0.000725
512.000000, 0.000600
513.000000, 0.000555
514.000000, 0.000474
515.000000, 0.000376
516.000000, 0.000501
517.000000, 0.000492
518.000000, 0.000331
519.000000, 0.000411
520.000000, 0.000304
521.000000, 0.000179
522.000000, 0.000527
523.000000, 0.000536
524.000000, 0.000339
525.000000, 0.000321
526.000000, 0.000223
527.000000, 0.000143
528.000000, 0.000517
529.000000, 0.000607
530.000000, 0.000437
531.000000, 0.000374
532.000000, 0.000330
533.000000, 0.000321
534.000000, 0.000356
535.000000, 0.000267
536.000000, 0.000303
537.000000, 0.000347
538.000000, 0.000267
539.000000, 0.000214
540.000000, 0.000276
541.000000, 0.000294
542.000000, 0.000329
543.000000, 0.000312
544.000000, 0.000214
545.000000, 0.000223
546.000000, 0.000312
547.000000, 0.000409
548.000000, 0.000374
549.000000, 0.000365
550.000000, 0.000276
551.000000, 0.000267
552.000000, 0.000320
553.000000, 0.000311
554.000000, 0.000338
555.000000, 0.000391
556.000000, 0.000276
557.000000, 0.000400
558.000000, 0.000347
559.000000, 0.000249
560.000000, 0.000213
561.000000, 0.000382
562.000000, 0.000383
563.000000, 0.000365
564.000000, 0.000392
565.000000, 0.000347
566.000000, 0.000276
567.000000, 0.000240
568.000000, 0.000320
569.000000, 0.000347
570.000000, 0.000365
571.000000, 0.000383
572.000000, 0.000329
573.000000, 0.000196
574.000000, 0.000214
575.000000, 0.000347
576.000000, 0.000302
577.000000, 0.000249
578.000000, 0.000347
579.000000, 0.000267
580.000000, 0.000222
581.000000, 0.000436
582.000000, 0.000400
583.000000, 0.000445
584.000000, 0.000356
585.000000, 0.000213
586.000000, 0.000133
587.000000, 0.000444
588.000000, 0.000284
589.000000, 0.000418
590.000000, 0.000418
591.000000, 0.000311
592.000000, 0.000222
593.000000, 0.000462
594.000000, 0.000204
595.000000, 0.000240
596.000000, 0.000284
597.000000, 0.000204
598.000000, 0.000098
599.000000, 0.000550
600.000000, 0.000213
601.000000, 0.000337
602.000000, 0.000293
603.000000, 0.000275
604.000000, 0.000222
605.000000, 0.000524
606.000000, 0.000213
607.000000, 0.000364
608.000000, 0.000284
609.000000, 0.000231
610.000000, 0.000142
611.000000, 0.000550
612.000000, 0.000222
613.000000, 0.000444
614.000000, 0.000426
615.000000, 0.000408
616.000000, 0.000240
617.000000, 0.000506
618.000000, 0.000204
619.000000, 0.000319
620.000000, 0.000453
621.000000, 0.000319
622.000000, 0.000213
623.000000, 0.000647
624.000000, 0.000293
625.000000, 0.000266
626.000000, 0.000488
627.000000, 0.000222
628.000000, 0.000230
629.000000, 0.000585
630.000000, 0.000301
631.000000, 0.000399
632.000000, 0.000470
633.000000, 0.000168
634.000000, 0.000221
635.000000, 0.000461
636.000000, 0.000301
637.000000, 0.000336
638.000000, 0.000328
639.000000, 0.000097
640.000000, 0.000363
641.000000, 0.000416
642.000000, 0.000310
643.000000, 0.000212
644.000000, 0.000504
645.000000, 0.000221
646.000000, 0.000416
647.000000, 0.000495
648.000000, 0.000230
649.000000, 0.000230
650.000000, 0.000451
651.000000, 0.000318
652.000000, 0.000539
653.000000, 0.000451
654.000000, 0.000230
655.000000, 0.000150
656.000000, 0.000345
657.000000, 0.000221
658.000000, 0.000327
659.000000, 0.000583
660.000000, 0.000433
661.000000, 0.000194
662.000000, 0.000468
663.000000, 0.000168
664.000000, 0.000071
665.000000, 0.000397
666.000000, 0.000309
667.000000, 0.000485
668.000000, 0.000326
669.000000, 0.000379
670.000000, 0.000494
671.000000, 0.000353
672.000000, 0.000176
673.000000, 0.000617
674.000000, 0.000766
675.000000, 0.000546
676.000000, 0.000396
677.000000, 0.000616
678.000000, 0.000062
679.000000, 0.000739
680.000000, 0.000238
681.000000, 0.000519
682.000000, 0.000176
683.000000, 0.000589
684.000000, 0.000413
685.000000, 0.000818
686.000000, 0.000422
687.000000, 0.000360
688.000000, 0.000149
689.000000, 0.000598
690.000000, 0.000422
691.000000, 0.000474
692.000000, 0.000202
693.000000, 0.000123
694.000000, 0.000334
695.000000, 0.000333
696.000000, 0.000360
697.000000, 0.000465
698.000000, 0.000368
699.000000, 0.000123
700.000000, 0.000386
701.000000, 0.000429
702.000000, 0.000368
703.000000, 0.000666
704.000000, 0.000280
705.000000, 0.000280
706.000000, 0.000070
707.000000, 0.000499
708.000000, 0.000201
709.000000, 0.000542
710.000000, 0.000534
711.000000, 0.000376
712.000000, 0.000175
713.000000, 0.000603
714.000000, 0.000489
715.000000, 0.000550
716.000000, 0.000367
717.000000, 0.000725
718.000000, 0.000367
719.000000, 0.000890
720.000000, 0.000227
721.000000, 0.000497
722.000000, 0.000262
723.000000, 0.000235
724.000000, 0.000035
725.000000, 0.000689
726.000000, 0.000383
727.000000, 0.000331
728.000000, 0.000227
729.000000, 0.000461
730.000000, 0.000279
731.000000, 0.000670
732.000000, 0.000313
733.000000, 0.000322
734.000000, 0.000409
735.000000, 0.000278
736.000000, 0.000513
737.000000, 0.000512
738.000000, 0.000434
739.000000, 0.000295
740.000000, 0.000477
741.000000, 0.000278
742.000000, 0.000286
743.000000, 0.000650
744.000000, 0.000538
745.000000, 0.000173
746.000000, 0.000425
747.000000, 0.000199
748.000000, 0.000442
749.000000, 0.000537
750.000000, 0.000710
751.000000, 0.000225
752.000000, 0.000675
753.000000, 0.000363
754.000000, 0.000536
755.000000, 0.000406
756.000000, 0.000709
757.000000, 0.000251
758.000000, 0.000579
759.000000, 0.000380
760.000000, 0.000544
761.000000, 0.000457
762.000000, 0.000474
763.000000, 0.000190
764.000000, 0.000500
765.000000, 0.000293
766.000000, 0.000422
767.000000, 0.000560
768.000000, 0.000448
769.000000, 0.000121
770.000000, 0.000465
771.000000, 0.000155
772.000000, 0.000396
773.000000, 0.000525
774.000000, 0.000361
775.000000, 0.000181
776.000000, 0.000481
777.000000, 0.000387
778.000000, 0.000421
779.000000, 0.000618
780.000000, 0.000481
781.000000, 0.000275
782.000000, 0.000549
783.000000, 0.000437
784.000000, 0.000403
785.000000, 0.000634
786.000000, 0.000428
787.000000, 0.000257
788.000000, 0.000497
789.000000, 0.000462
790.000000, 0.000342
791.000000, 0.000650
792.000000, 0.000385
793.000000, 0.000282
794.000000, 0.000462
795.000000, 0.000410
796.000000, 0.000308
797.000000, 0.000675
798.000000, 0.000555
799.000000, 0.000401
800.000000, 0.000538
801.000000, 0.000546
802.000000, 0.000546
803.000000, 0.000716
804.000000, 0.000426
805.000000, 0.000375
806.000000, 0.000537
807.000000, 0.000511
808.000000, 0.000375
809.000000, 0.000613
810.000000, 0.000460
811.000000, 0.000553
812.000000, 0.000672
813.000000, 0.000587
814.000000, 0.000340
815.000000, 0.000511
816.000000, 0.000315
817.000000, 0.000595
818.000000, 0.000715
819.000000, 0.000459
820.000000, 0.000357
821.000000, 0.000596
822.000000, 0.000417
823.000000, 0.000570
824.000000, 0.000630
825.000000, 0.000587
826.000000, 0.000417
827.000000, 0.000520
828.000000, 0.000332
829.000000, 0.000562
830.000000, 0.000673
831.000000, 0.000648
832.000000, 0.000341
833.000000, 0.000512
834.000000, 0.000410
835.000000, 0.000598
836.000000, 0.000761
837.000000, 0.000710
838.000000, 0.000513
839.000000, 0.000582
840.000000, 0.000488
841.000000, 0.000591
842.000000, 0.000721
843.000000, 0.000566
844.000000, 0.000309
845.000000, 0.000524
846.000000, 0.000507
847.000000, 0.000688
848.000000, 0.000818
849.000000, 0.000577
850.000000, 0.000457
851.000000, 0.000535
852.000000, 0.000449
853.000000, 0.000578
854.000000, 0.000785
855.000000, 0.000673
856.000000, 0.000492
857.000000, 0.000510
858.000000, 0.000319
859.000000, 0.000354
860.000000, 0.000467
861.000000, 0.000406
862.000000, 0.000457
863.000000, 0.000463
864.000000, 0.000474
865.000000, 0.000482
866.000000, 0.000534
867.000000, 0.000480
868.000000, 0.000483
869.000000, 0.000557
870.000000, 0.000547
871.000000, 0.000566
872.000000, 0.000490
873.000000, 0.000381
874.000000, 0.000376
875.000000, 0.000468
876.000000, 0.000547
877.000000, 0.000556
878.000000, 0.000564
879.000000, 0.000497
880.000000, 0.000415
881.000000, 0.000418
882.000000, 0.000482
883.000000, 0.000517
884.000000, 0.000503
885.000000, 0.000383
886.000000, 0.000321
887.000000, 0.000412
888.000000, 0.000600
889.000000, 0.000747
890.000000, 0.000644
891.000000, 0.000512
892.000000, 0.000459
893.000000, 0.000406
894.000000, 0.000425
895.000000, 0.000468
896.000000, 0.000467
897.000000, 0.000536
898.000000, 0.000554
899.000000, 0.000486
900.000000, 0.000420
901.000000, 0.000395
902.000000, 0.000480
903.000000, 0.000550
904.000000, 0.000507
905.000000, 0.000487
906.000000, 0.000443
907.000000, 0.000395
908.000000, 0.000422
909.000000, 0.000512
910.000000, 0.000586
911.000000, 0.000567
912.000000, 0.000546
913.000000, 0.000490
914.000000, 0.000444
915.000000, 0.000432
916.000000, 0.000530
917.000000, 0.000528
918.000000, 0.000543
919.000000, 0.000554
920.000000, 0.000523
921.000000, 0.000430
922.000000, 0.000456
923.000000, 0.000562
924.000000, 0.000541
925.000000, 0.000573
926.000000, 0.000545
927.000000, 0.000525
928.000000, 0.000552
929.000000, 0.000573
930.000000, 0.000656
931.000000, 0.000501
932.000000, 0.000237
933.000000, 0.000505
934.000000, 0.000778
935.000000, 0.000506
936.000000, 0.000218
937.000000, 0.000482
938.000000, 0.000549
939.000000, 0.000553
940.000000, 0.000634
941.000000, 0.000541
942.000000, 0.000468
943.000000, 0.000506
944.000000, 0.000623
945.000000, 0.000584
946.000000, 0.000542
947.000000, 0.000508
948.000000, 0.000493
949.000000, 0.000439
950.000000, 0.000420
951.000000, 0.000571
952.000000, 0.000504
953.000000, 0.000542
954.000000, 0.000534
955.000000, 0.000340
956.000000, 0.000125
957.000000, 0.000432
958.000000, 0.000943
959.000000, 0.000867
960.000000, 0.000499
961.000000, 0.000186
962.000000, 0.000443
963.000000, 0.000756
964.000000, 0.000683
965.000000, 0.000636
966.000000, 0.000399
967.000000, 0.000130
968.000000, 0.000402
969.000000, 0.000631
970.000000, 0.000406
971.000000, 0.000338
972.000000, 0.000501
973.000000, 0.000624
974.000000, 0.000389
975.000000, 0.000369
976.000000, 0.000656
977.000000, 0.000640
978.000000, 0.000466
979.000000, 0.000648
980.000000, 0.000751
981.000000, 0.000595
982.000000, 0.000471
983.000000, 0.000622
984.000000, 0.000412
985.000000, 0.000343
986.000000, 0.000543
987.000000, 0.000797
988.000000, 0.000534
989.000000, 0.000422
990.000000, 0.000396
991.000000, 0.000349
992.000000, 0.000476
993.000000, 0.000465
994.000000, 0.000418
995.000000, 0.000537
996.000000, 0.000795
997.000000, 0.000547
998.000000, 0.000486
999.000000, 0.000393
1000.000000, 0.000517
1001.000000, 0.000569
1002.000000, 0.000607
1003.000000, 0.000517
1004.000000, 0.000503
1005.000000, 0.000429
1006.000000, 0.000428
1007.000000, 0.000434
1008.000000, 0.000499
1009.000000, 0.000531
1010.000000, 0.000449
1011.000000, 0.000370
1012.000000, 0.000538
1013.000000, 0.000809
1014.000000, 0.000542
1015.000000, 0.000482
1016.000000, 0.000454
1017.000000, 0.000615
1018.000000, 0.000725
1019.000000, 0.000485
1020.000000, 0.000366
1021.000000, 0.000259
1022.000000, 0.000337
1023.000000, 0.000473
1024.000000, 0.000940
1025.000000, 0.000747
1026.000000, 0.000408
1027.000000, 0.000252
1028.000000, 0.000285
1029.000000, 0.000459
1030.000000, 0.000942
1031.000000, 0.000943
1032.000000, 0.000390
1033.000000, 0.000428
1034.000000, 0.000363
1035.000000, 0.000394
1036.000000, 0.000422
1037.000000, 0.000651
1038.000000, 0.000935
1039.000000, 0.000444
1040.000000, 0.000396
1041.000000, 0.000365
1042.000000, 0.000406
1043.000000, 0.000322
1044.000000, 0.000470
1045.000000, 0.000890
1046.000000, 0.000946
1047.000000, 0.000375
1048.000000, 0.000407
1049.000000, 0.000331
1050.000000, 0.000410
1051.000000, 0.000422
1052.000000, 0.000607
1053.000000, 0.000863
1054.000000, 0.000512
1055.000000, 0.000405
1056.000000, 0.000402
1057.000000, 0.000322
1058.000000, 0.000252
1059.000000, 0.000343
1060.000000, 0.000518
1061.000000, 0.000999
1062.000000, 0.000807
1063.000000, 0.000425
1064.000000, 0.000395
1065.000000, 0.000363
1066.000000, 0.000373
1067.000000, 0.000376
1068.000000, 0.000379
1069.000000, 0.000484
1070.000000, 0.000394
1071.000000, 0.000797
1072.000000, 0.000821
1073.000000, 0.000735
1074.000000, 0.000359
1075.000000, 0.000298
1076.000000, 0.000316
1077.000000, 0.000335
1078.000000, 0.000451
1079.000000, 0.000782
1080.000000, 0.000815
1081.000000, 0.000644
1082.000000, 0.000219
1083.000000, 0.000272
1084.000000, 0.000364
1085.000000, 0.000358
1086.000000, 0.000641
1087.000000, 0.000703
1088.000000, 0.000709
1089.000000, 0.000782
1090.000000, 0.000636
1091.000000, 0.000299
1092.000000, 0.000359
1093.000000, 0.000436
1094.000000, 0.000737
1095.000000, 0.000774
1096.000000, 0.000746
1097.000000, 0.000661
1098.000000, 0.000338
1099.000000, 0.000330
1100.000000, 0.000376
1101.000000, 0.000314
1102.000000, 0.000452
1103.000000, 0.000829
1104.000000, 0.000847
1105.000000, 0.000889
1106.000000, 0.000770
1107.000000, 0.000524
1108.000000, 0.000519
1109.000000, 0.000386
1110.000000, 0.000462
1111.000000, 0.000427
1112.000000, 0.000417
1113.000000, 0.000431
1114.000000, 0.000491
1115.000000, 0.000509
1116.000000, 0.000330
1117.000000, 0.000367
1118.000000, 0.000242
1119.000000, 0.000260
1120.000000, 0.000236
1121.000000, 0.000365
1122.000000, 0.000791
1123.000000, 0.000756
1124.000000, 0.000806
1125.000000, 0.000709
1126.000000, 0.000659
1127.000000, 0.000308
1128.000000, 0.000427
1129.000000, 0.000666
1130.000000, 0.000958
1131.000000, 0.000792
1132.000000, 0.000414
1133.000000, 0.000444
1134.000000, 0.000517
1135.000000, 0.000538
1136.000000, 0.000558
1137.000000, 0.000364
1138.000000, 0.000454
1139.000000, 0.000369
1140.000000, 0.000298
1141.000000, 0.000282
1142.000000, 0.000314
1143.000000, 0.000333
1144.000000, 0.000356
1145.000000, 0.000677
1146.000000, 0.000733
1147.000000, 0.000718
1148.000000, 0.000627
1149.000000, 0.000318
1150.000000, 0.000293
1151.000000, 0.000169
1152.000000, 0.000361
1153.000000, 0.000649
1154.000000, 0.000702
1155.000000, 0.000788
1156.000000, 0.000834
1157.000000, 0.000828
1158.000000, 0.000550
1159.000000, 0.000340
1160.000000, 0.000295
1161.000000, 0.000302
1162.000000, 0.000295
1163.000000, 0.000313
1164.000000, 0.000270
1165.000000, 0.000335
1166.000000, 0.000594
1167.000000, 0.000604
1168.000000, 0.000658
1169.000000, 0.000719
1170.000000, 0.000748
1171.000000, 0.000863
1172.000000, 0.000834
1173.000000, 0.000815
1174.000000, 0.000691
1175.000000, 0.000493
1176.000000, 0.000452
1177.000000, 0.000497
1178.000000, 0.000528
1179.000000, 0.000561
1180.000000, 0.000444
1181.000000, 0.000476
1182.000000, 0.000442
1183.000000, 0.000483
1184.000000, 0.000451
1185.000000, 0.000500
1186.000000, 0.000529
1187.000000, 0.000538
1188.000000, 0.000463
1189.000000, 0.000573
1190.000000, 0.000797
1191.000000, 0.000798
1192.000000, 0.000611
1193.000000, 0.000372
1194.000000, 0.000300
1195.000000, 0.000321
1196.000000, 0.000531
1197.000000, 0.000733
1198.000000, 0.000588
1199.000000, 0.000408
1200.000000, 0.000458
1201.000000, 0.000677
1202.000000, 0.000538
1203.000000, 0.000339
1204.000000, 0.000404
1205.000000, 0.000742
1206.000000, 0.000945
1207.000000, 0.000737
1208.000000, 0.000519
1209.000000, 0.000491
1210.000000, 0.000523
1211.000000, 0.000520
1212.000000, 0.000480
1213.000000, 0.000536
1214.000000, 0.000488
1215.000000, 0.000384
1216.000000, 0.000419
1217.000000, 0.000340
1218.000000, 0.000370
1219.000000, 0.000494
1220.000000, 0.000601
1221.000000, 0.000640
1222.000000, 0.001044
1223.000000, 0.003375
1224.000000, 0.008813
1225.000000, 0.011862
1226.000000, 0.007501
1227.000000, 0.002268
1228.000000, 0.000660
1229.000000, 0.000516
1230.000000, 0.000471
1231.000000, 0.000421
1232.000000, 0.000424
1233.000000, 0.000451
1234.000000, 0.010409
1235.000000, 0.043586
1236.000000, 0.066137
1237.000000, 0.064625
1238.000000, 0.035570
1239.000000, 0.005966
1240.000000, 0.007702
1241.000000, 0.004773
1242.000000, 0.004556
1243.000000, 0.030806
1244.000000, 0.066274
1245.000000, 0.075384
1246.000000, 0.097189
1247.000000, 0.138831
1248.000000, 0.208255
1249.000000, 0.300082
1250.000000, 0.425514
1251.000000, 0.578273
1252.000000, 0.718172
1253.000000, 0.764819
1254.000000, 0.693137
1255.000000, 0.607391
1256.000000, 0.562211
1257.000000, 0.552484
1258.000000, 0.572557
1259.000000, 0.622242
1260.000000, 0.729009
1261.000000, 0.941370
1262.000000, 1.274265
1263.000000, 1.726528
1264.000000, 2.136638
1265.000000, 2.304491
1266.000000, 2.187410
1267.000000, 1.883261
1268.000000, 1.579037
1269.000000, 1.385379
1270.000000, 1.297944
1271.000000, 1.310795
1272.000000, 1.409729
1273.000000, 1.631245
1274.000000, 2.025506
1275.000000, 2.705220
1276.000000, 3.829290
1277.000000, 5.469490
1278.000000, 7.330819
1279.000000, 8.685988
1280.000000, 8.868715
1281.000000, 8.031703
1282.000000, 6.913329
1283.000000, 6.035717
1284.000000, 5.568835
1285.000000, 5.506243
1286.000000, 5.836811
1287.000000, 6.600958
1288.000000, 7.894731
1289.000000, 9.939409
1290.000000, 12.861406
1291.000000, 16.502556
1292.000000, 20.165182
1293.000000, 22.742456
1294.000000, 23.435215
1295.000000, 22.462021
1296.000000, 20.893530
1297.000000, 19.623104
1298.000000, 19.103692
1299.000000, 19.567939
1300.000000, 21.151267
1301.000000, 24.319588
1302.000000, 29.361331
1303.000000, 36.482239
1304.000000, 44.918802
1305.000000, 52.386953
1306.000000, 56.141490
1307.000000, 54.885733
1308.000000, 50.047788
1309.000000, 44.097188
1310.000000, 39.369980
1311.000000, 36.617129
1312.000000, 35.791357
1313.000000, 36.864656
1314.000000, 39.943067
1315.000000, 45.449531
1316.000000, 52.833567
1317.000000, 61.363118
1318.000000, 69.320169
1319.000000, 74.305443
1320.000000, 75.027345
1321.000000, 71.870122
1322.000000, 66.933151
1323.000000, 62.037688
1324.000000, 58.516370
1325.000000, 56.844982
1326.000000, 56.973728
1327.000000, 58.567459
1328.000000, 60.957383
1329.000000, 63.204248
1330.000000, 64.104066
1331.000000, 62.757691
1332.000000, 58.989013
1333.000000, 53.596330
1334.000000, 47.663495
1335.000000, 42.246752
1336.000000, 37.768748
1337.000000, 34.501116
1338.000000, 32.479164
1339.000000, 31.684465
1340.000000, 32.044858
1341.000000, 33.607791
1342.000000, 36.258352
1343.000000, 40.174320
1344.000000, 45.286881
1345.000000, 51.065105
1346.000000, 55.960909
1347.000000, 58.506849
1348.000000, 57.880454
1349.000000, 54.126394
1350.000000, 48.390086
1351.000000, 42.382590
1352.000000, 37.104352
1353.000000, 33.260320
1354.000000, 30.596120
1355.000000, 29.104170
1356.000000, 28.687068
1357.000000, 29.323464
1358.000000, 30.986220
1359.000000, 33.905665
1360.000000, 38.098053
1361.000000, 44.296279
1362.000000, 50.881847
1363.000000, 57.812867
1364.000000, 65.165744
1365.000000, 71.020608
1366.000000, 73.907666
1367.000000, 74.117234
1368.000000, 72.457658
1369.000000, 69.607233
1370.000000, 66.503644
1371.000000, 63.901481
1372.000000, 62.425539
1373.000000, 62.266253
1374.000000, 63.230516
1375.000000, 65.283008
1376.000000, 68.165063
1377.000000, 71.603184
1378.000000, 74.750245
1379.000000, 77.172931
1380.000000, 78.365833
1381.000000, 77.953805
1382.000000, 75.854425
1383.000000, 72.511591
1384.000000, 68.662013
1385.000000, 65.127568
1386.000000, 62.076091
1387.000000, 59.765723
1388.000000, 58.294659
1389.000000, 57.889356
1390.000000, 58.364818
1391.000000, 59.838597
1392.000000, 62.144422
1393.000000, 64.597184
1394.000000, 67.086533
1395.000000, 69.963153
1396.000000, 72.082001
1397.000000, 73.378529
1398.000000, 73.846753
1399.000000, 73.673848
1400.000000, 72.860055
1401.000000, 71.897850
1402.000000, 71.192654
1403.000000, 70.921496
1404.000000, 71.168419
1405.000000, 71.993332
1406.000000, 73.282974
1407.000000, 75.046147
1408.000000, 77.093538
1409.000000, 79.091093
1410.000000, 80.517333
1411.000000, 81.171366
1412.000000, 81.066217
1413.000000, 80.072586
1414.000000, 78.319880
1415.000000, 75.943779
1416.000000, 73.491574
1417.000000, 71.481487
1418.000000, 69.880738
1419.000000, 68.884436
1420.000000, 68.732263
1421.000000, 69.361947
1422.000000, 70.732873
1423.000000, 72.791708
1424.000000, 75.379784
1425.000000, 77.747757
1426.000000, 79.776714
1427.000000, 80.759726
1428.000000, 80.250748
1429.000000, 78.153828
1430.000000, 74.737059
1431.000000, 70.522559
1432.000000, 65.517683
1433.000000, 61.077330
1434.000000, 57.345346
1435.000000, 54.087543
1436.000000, 51.949417
1437.000000, 50.687001
1438.000000, 50.446438
1439.000000, 51.149547
1440.000000, 52.796185
1441.000000, 55.334702
1442.000000, 58.673353
1443.000000, 62.480230
1444.000000, 66.431327
1445.000000, 69.771188
1446.000000, 71.875584
1447.000000, 72.107941
1448.000000, 70.501368
1449.000000, 67.114897
1450.000000, 62.503869
1451.000000, 57.508357
1452.000000, 52.683348
1453.000000, 48.340824
1454.000000, 44.914011
1455.000000, 42.032015
1456.000000, 40.114777
1457.000000, 38.944857
1458.000000, 38.587461
1459.000000, 38.957367
1460.000000, 40.085210
1461.000000, 41.854912
1462.000000, 44.594455
1463.000000, 48.193629
1464.000000, 52.490419
1465.000000, 57.419365
1466.000000, 63.017561
1467.000000, 68.236036
1468.000000, 72.455735
1469.000000, 75.175869
1470.000000, 75.884449
1471.000000, 74.656598
1472.000000, 71.848342
1473.000000, 68.222289
1474.000000, 64.462098
1475.000000, 60.907252
1476.000000, 58.072820
1477.000000, 55.976258
1478.000000, 54.779930
1479.000000, 54.475567
1480.000000, 55.066313
1481.000000, 56.568926
1482.000000, 58.797050
1483.000000, 61.812842
1484.000000, 65.492514
1485.000000, 69.676067
1486.000000, 74.002544
1487.000000, 78.195481
1488.000000, 81.708901
1489.000000, 84.322552
1490.000000, 85.706025
1491.000000, 85.813186
1492.000000, 84.805812
1493.000000, 83.089746
1494.000000, 80.804741
1495.000000, 78.498562
1496.000000, 76.487570
1497.000000, 74.873469
1498.000000, 73.797359
1499.000000, 73.393769
1500.000000, 73.599108
1501.000000, 74.420197
1502.000000, 75.699192
1503.000000, 77.584046
1504.000000, 79.660559
1505.000000, 81.785469
1506.000000, 83.674156
1507.000000, 85.099166
1508.000000, 85.821675
1509.000000, 85.714688
1510.000000, 84.840615
1511.000000, 83.243496
1512.000000, 81.155895
1513.000000, 78.828231
1514.000000, 76.512946
1515.000000, 74.396480
1516.000000, 72.680527
1517.000000, 71.438082
1518.000000, 70.734032
1519.000000, 70.614158
1520.000000, 71.093860
1521.000000, 72.088149
1522.000000, 73.560381
1523.000000, 75.430843
1524.000000, 77.637286
1525.000000, 79.943953
1526.000000, 82.277187
1527.000000, 84.451578
1528.000000, 86.230965
1529.000000, 87.560749
1530.000000, 88.355283
1531.000000, 88.628042
1532.000000, 88.358411
1533.000000, 87.735364
1534.000000, 86.868448
1535.000000, 85.878024
1536.000000, 84.910364
1537.000000, 84.050072
1538.000000, 83.407226
1539.000000, 83.018344
1540.000000, 82.900311
1541.000000, 83.015982
1542.000000, 83.348287
1543.000000, 83.828374
1544.000000, 84.428052
1545.000000, 84.982073
1546.000000, 85.440596
1547.000000, 85.734042
1548.000000, 85.789215
1549.000000, 85.596334
1550.000000, 85.194158
1551.000000, 84.628298
1552.000000, 83.992182
1553.000000, 83.353903
1554.000000, 82.762653
1555.000000, 82.365219
1556.000000, 82.270742
1557.000000, 82.507916
1558.000000, 83.040475
1559.000000, 83.897291
1560.000000, 85.111233
1561.000000, 86.456698
1562.000000, 87.823603
1563.000000, 89.106429
1564.000000, 90.088585
1565.000000, 90.556802
1566.000000, 90.399009
1567.000000, 89.497986
1568.000000, 87.833850
1569.000000, 85.469708
1570.000000, 82.638966
1571.000000, 79.481767
1572.000000, 76.143916
1573.000000, 72.746507
1574.000000, 69.677489
1575.000000, 66.961179
1576.000000, 64.677766
1577.000000, 62.837290
1578.000000, 61.514939
1579.000000, 60.721827
1580.000000, 60.467482
1581.000000, 60.774700
1582.000000, 61.689388
1583.000000, 63.197497
1584.000000, 65.256653
1585.000000, 67.880862
1586.000000, 70.921322
1587.000000, 74.349620
1588.000000, 78.086048
1589.000000, 81.684133
1590.000000, 84.959015
1591.000000, 87.640436
1592.000000, 89.385076
1593.000000, 89.975565
1594.000000, 89.395933
1595.000000, 87.758384
1596.000000, 85.325313
1597.000000, 82.374214
1598.000000, 79.249108
1599.000000, 76.222556
1600.000000, 73.445261
1601.000000, 71.111785
1602.000000, 69.327713
1603.000000, 68.095675
1604.000000, 67.463481
1605.000000, 67.419153
1606.000000, 67.982182
1607.000000, 69.116559
1608.000000, 70.806037
1609.000000, 72.992004
1610.000000, 75.539797
1611.000000, 78.469796
1612.000000, 81.663260
1613.000000, 84.773056
1614.000000, 87.686273
1615.000000, 90.304812
1616.000000, 92.299664
1617.000000, 93.545209
1618.000000, 93.923556
1619.000000, 93.433308
1620.000000, 92.135694
1621.000000, 90.299627
1622.000000, 88.125562
1623.000000, 85.736037
1624.000000, 83.413678
1625.000000, 81.307392
1626.000000, 79.541238
1627.000000, 78.166464
1628.000000, 77.271281
1629.000000, 76.939669
1630.000000, 77.135684
1631.000000, 77.833231
1632.000000, 79.023623
1633.000000, 80.646066
1634.000000, 82.577877
1635.000000, 84.773093
1636.000000, 87.085263
1637.000000, 89.316958
1638.000000, 91.279174
1639.000000, 92.777675
1640.000000, 93.702572
1641.000000, 93.938741
1642.000000, 93.474047
1643.000000, 92.364454
1644.000000, 90.719986
1645.000000, 88.683755
1646.000000, 86.426892
1647.000000, 84.145820
1648.000000, 81.968928
1649.000000, 80.044312
1650.000000, 78.442023
1651.000000, 77.116699
1652.000000, 76.183956
1653.000000, 75.704254
1654.000000, 75.627647
1655.000000, 75.994700
1656.000000, 76.810209
1657.000000, 78.008806
1658.000000, 79.567488
1659.000000, 81.378517
1660.000000, 83.487636
1661.000000, 85.749763
1662.000000, 87.990910
1663.000000, 90.153455
1664.000000, 92.071944
1665.000000, 93.625417
1666.000000, 94.710201
1667.000000, 95.261053
1668.000000, 95.252986
1669.000000, 94.762546
1670.000000, 93.780970
1671.000000, 92.446725
1672.000000, 90.930332
1673.000000, 89.378534
1674.000000, 87.861757
1675.000000, 86.503085
1676.000000, 85.386274
1677.000000, 84.562568
1678.000000, 84.076983
1679.000000, 83.940992
1680.000000, 84.138382
1681.000000, 84.640132
1682.000000, 85.441126
1683.000000, 86.488607
1684.000000, 87.700135
1685.000000, 88.985365
1686.000000, 90.317948
1687.000000, 91.533827
1688.000000, 92.544786
1689.000000, 93.331644
1690.000000, 93.772514
1691.000000, 93.882536
1692.000000, 93.641365
1693.000000, 93.059342
1694.000000, 92.125063
1695.000000, 90.997869
1696.000000, 89.707126
1697.000000, 88.342346
1698.000000, 87.001714
1699.000000, 85.718338
1700.000000, 84.567713
1701.000000, 83.686985
1702.000000, 83.028206
1703.000000, 82.665792
1704.000000, 82.631021
1705.000000, 82.868631
1706.000000, 83.415615
1707.000000, 84.244934
1708.000000, 85.383833
1709.000000, 86.698918
1710.000000, 88.172638
1711.000000, 89.754984
1712.000000, 91.329716
1713.000000, 92.707187
1714.000000, 93.909677
1715.000000, 94.860874
1716.000000, 95.457676
1717.000000, 95.651562
1718.000000, 95.449542
1719.000000, 94.832117
1720.000000, 93.866567
1721.000000, 92.678555
1722.000000, 91.317713
1723.000000, 89.842440
1724.000000, 88.406062
1725.000000, 87.049609
1726.000000, 85.818963
1727.000000, 84.783682
1728.000000, 84.002451
1729.000000, 83.460971
1730.000000, 83.180284
1731.000000, 83.184656
1732.000000, 83.435524
1733.000000, 83.934872
1734.000000, 84.664001
1735.000000, 85.542320
1736.000000, 86.535470
1737.000000, 87.613491
1738.000000, 88.664238
1739.000000, 89.659167
1740.000000, 90.558253
1741.000000, 91.200404
1742.000000, 91.583945
1743.000000, 91.667046
1744.000000, 91.398905
1745.000000, 90.808293
1746.000000, 89.884180
1747.000000, 88.793800
1748.000000, 87.497996
1749.000000, 86.119405
1750.000000, 84.706489
1751.000000, 83.313198
1752.000000, 82.070030
1753.000000, 80.975026
1754.000000, 80.138713
1755.000000, 79.567014
1756.000000, 79.288399
1757.000000, 79.310024
1758.000000, 79.648042
1759.000000, 80.309836
1760.000000, 81.313037
1761.000000, 82.528265
1762.000000, 83.976598
1763.000000, 85.685616
1764.000000, 87.475222
1765.000000, 89.250400
1766.000000, 91.044905
1767.000000, 92.678578
1768.000000, 94.088440
1769.000000, 95.086533
1770.000000, 95.715730
1771.000000, 95.882780
1772.000000, 95.555637
1773.000000, 94.742868
1774.000000, 93.495627
1775.000000, 91.974497
1776.000000, 89.999166
1777.000000, 87.823812
1778.000000, 85.750609
1779.000000, 83.538081
1780.000000, 81.337566
1781.000000, 79.381393
1782.000000, 77.648978
1783.000000, 76.169199
1784.000000, 74.912928
1785.000000, 73.948658
1786.000000, 73.341990
1787.000000, 73.092889
1788.000000, 73.136270
1789.000000, 73.539346
1790.000000, 74.236264
1791.000000, 75.269832
1792.000000, 76.585427
1793.000000, 78.135217
1794.000000, 79.915589
1795.000000, 81.854145
1796.000000, 83.766187
1797.000000, 85.818537
1798.000000, 87.856929
1799.000000, 89.678423
1800.000000, 91.297705
1801.000000, 92.645641
1802.000000, 93.578193
1803.000000, 94.132767
1804.000000, 94.264845
1805.000000, 93.979339
1806.000000, 93.380273
1807.000000, 92.560375
1808.000000, 91.510682
1809.000000, 90.274806
1810.000000, 88.889815
1811.000000, 87.529907
1812.000000, 86.292196
1813.000000, 85.165204
1814.000000, 84.123914
1815.000000, 83.312920
1816.000000, 82.724184
1817.000000, 82.251990
1818.000000, 82.112178
1819.000000, 82.144192
1820.000000, 82.501137
1821.000000, 83.037410
1822.000000, 83.681644
1823.000000, 84.284444
1824.000000, 85.136891
1825.000000, 86.126214
1826.000000, 87.360637
1827.000000, 88.438727
1828.000000, 89.511804
1829.000000, 90.469249
1830.000000, 91.287919
1831.000000, 91.967221
1832.000000, 92.369047
1833.000000, 92.534884
1834.000000, 92.560395
1835.000000, 92.360953
1836.000000, 91.961662
1837.000000, 91.359717
1838.000000, 90.790810
1839.000000, 90.097428
1840.000000, 89.297556
1841.000000, 88.542137
1842.000000, 87.799175
1843.000000, 87.148330
1844.000000, 86.685334
1845.000000, 86.461410
1846.000000, 86.242709
1847.000000, 86.100948
1848.000000, 86.241487
1849.000000, 86.486138
1850.000000, 86.793769
1851.000000, 87.280532
1852.000000, 87.842278
1853.000000, 88.453405
1854.000000, 89.108687
1855.000000, 89.756854
1856.000000, 90.304808
1857.000000, 90.825869
1858.000000, 91.193959
1859.000000, 91.494312
1860.000000, 91.558366
1861.000000, 91.429949
1862.000000, 91.119854
1863.000000, 90.588484
1864.000000, 89.980734
1865.000000, 89.151960
1866.000000, 88.216181
1867.000000, 87.232981
1868.000000, 86.055436
1869.000000, 84.853019
1870.000000, 83.604294
1871.000000, 82.566318
1872.000000, 81.618731
1873.000000, 80.741975
1874.000000, 80.119816
1875.000000, 79.676817
1876.000000, 79.455784
1877.000000, 79.438793
1878.000000, 79.508319
1879.000000, 79.797475
1880.000000, 80.276224
1881.000000, 80.930551
1882.000000, 81.793346
1883.000000, 82.814392
1884.000000, 84.029048
1885.000000, 85.176255
1886.000000, 86.328994
1887.000000, 87.464256
1888.000000, 88.580580
1889.000000, 89.572987
1890.000000, 90.459983
1891.000000, 91.276513
1892.000000, 91.790485
1893.000000, 92.015885
1894.000000, 91.931122
1895.000000, 91.703025
1896.000000, 91.217027
1897.000000, 90.491332
1898.000000, 89.581628
1899.000000, 88.349388
1900.000000, 87.030904
1901.000000, 85.728397
1902.000000, 84.446116
1903.000000, 83.189919
1904.000000, 82.013582
1905.000000, 80.791146
1906.000000, 79.667403
1907.000000, 78.786954
1908.000000, 78.113339
1909.000000, 77.669349
1910.000000, 77.401118
1911.000000, 77.312457
1912.000000, 77.436432
1913.000000, 77.813080
1914.000000, 78.358280
1915.000000, 78.982898
1916.000000, 79.702030
1917.000000, 80.610963
1918.000000, 81.700475
1919.000000, 82.886681
1920.000000, 84.190992
1921.000000, 85.557341
1922.000000, 86.824423
1923.000000, 87.919106
1924.000000, 88.886730
1925.000000, 89.741840
1926.000000, 90.454672
1927.000000, 90.961332
1928.000000, 91.237704
1929.000000, 91.269113
1930.000000, 91.091083
1931.000000, 90.705564
1932.000000, 90.134606
1933.000000, 89.396655
1934.000000, 88.542218
1935.000000, 87.663580
1936.000000, 86.751143
1937.000000, 85.773227
1938.000000, 84.798712
1939.000000, 83.916993
1940.000000, 83.137492
1941.000000, 82.503183
1942.000000, 81.998971
1943.000000, 81.622075
1944.000000, 81.407209
1945.000000, 81.392406
1946.000000, 81.519772
1947.000000, 81.828680
1948.000000, 82.305975
1949.000000, 82.890901
1950.000000, 83.589151
1951.000000, 84.361142
1952.000000, 85.239577
1953.000000, 86.171661
1954.000000, 87.047074
1955.000000, 87.886942
1956.000000, 88.637094
1957.000000, 89.233403
1958.000000, 89.682239
1959.000000, 89.887389
1960.000000, 89.864872
1961.000000, 89.635828
1962.000000, 89.194613
1963.000000, 88.496061
1964.000000, 87.555021
1965.000000, 86.424806
1966.000000, 85.215501
1967.000000, 83.904268
1968.000000, 82.455622
1969.000000, 81.044932
1970.000000, 79.631828
1971.000000, 78.271262
1972.000000, 76.988714
1973.000000, 75.798953
1974.000000, 74.779321
1975.000000, 73.870922
1976.000000, 73.091931
1977.000000, 72.499935
1978.000000, 72.091634
1979.000000, 71.850769
1980.000000, 71.804283
1981.000000, 71.962560
1982.000000, 72.297904
1983.000000, 72.825383
1984.000000, 73.545238
1985.000000, 74.459373
1986.000000, 75.531427
1987.000000, 76.759002
1988.000000, 78.107540
1989.000000, 79.538423
1990.000000, 81.067411
1991.000000, 82.633179
1992.000000, 84.157676
1993.000000, 85.614040
1994.000000, 86.964184
1995.000000, 88.129883
1996.000000, 89.070568
1997.000000, 89.760252
1998.000000, 90.153958
1999.000000, 90.213184
2000.000000, 89.977915
2001.000000, 89.449418
2002.000000, 88.620415
2003.000000, 87.560343
2004.000000, 86.354678
2005.000000, 84.920137
2006.000000, 83.361483
2007.000000, 81.823746
2008.000000, 80.272211
2009.000000, 78.766360
2010.000000, 77.309100
2011.000000, 75.900338
2012.000000, 74.615408
2013.000000, 73.467703
2014.000000, 72.457654
2015.000000, 71.621670
2016.000000, 70.949545
2017.000000, 70.431991
2018.000000, 70.087728
2019.000000, 69.943167
2020.000000, 69.975509
2021.000000, 70.149273
2022.000000, 70.513438
2023.000000, 71.075367
2024.000000, 71.793672
2025.000000, 72.679645
2026.000000, 73.671045
2027.000000, 74.827842
2028.000000, 76.126289
2029.000000, 77.430755
2030.000000, 78.844767
2031.000000, 80.315868
2032.000000, 81.734347
2033.000000, 83.165496
2034.000000, 84.491726
2035.000000, 85.726981
2036.000000, 86.830414
2037.000000, 87.725924
2038.000000, 88.427571
2039.000000, 88.928531
2040.000000, 89.206577
2041.000000, 89.251378
2042.000000, 89.092446
2043.000000, 88.749274
2044.000000, 88.202496
2045.000000, 87.518602
2046.000000, 86.745687
2047.000000, 85.887176
2048.000000, 84.992649
2049.000000, 84.096649
2050.000000, 83.156402
2051.000000, 82.249266
2052.000000, 81.410870
2053.000000, 80.626552
2054.000000, 79.949264
2055.000000, 79.317118
2056.000000, 78.801892
2057.000000, 78.407071
2058.000000, 78.137226
2059.000000, 77.984074
2060.000000, 77.911119
2061.000000, 77.951206
2062.000000, 78.125684
2063.000000, 78.398579
2064.000000, 78.739020
2065.000000, 79.192761
2066.000000, 79.715178
2067.000000, 80.291846
2068.000000, 80.900899
2069.000000, 81.508876
2070.000000, 82.140730
2071.000000, 82.799806
2072.000000, 83.375197
2073.000000, 83.910301
2074.000000, 84.378445
2075.000000, 84.753029
2076.000000, 85.037765
2077.000000, 85.233214
2078.000000, 85.325517
2079.000000, 85.287121
2080.000000, 85.168465
2081.000000, 84.973941
2082.000000, 84.674515
2083.000000, 84.313089
2084.000000, 83.899054
2085.000000, 83.439672
2086.000000, 82.954013
2087.000000, 82.448184
2088.000000, 81.972554
2089.000000, 81.463372
2090.000000, 81.002311
2091.000000, 80.607676
2092.000000, 80.258353
2093.000000, 79.980370
2094.000000, 79.759658
2095.000000, 79.595621
2096.000000, 79.503188
2097.000000, 79.489429
2098.000000, 79.567207
2099.000000, 79.718731
2100.000000, 79.942426
2101.000000, 80.247332
2102.000000, 80.615387
2103.000000, 81.032762
2104.000000, 81.498090
2105.000000, 82.009202
2106.000000, 82.536313
2107.000000, 83.100549
2108.000000, 83.634644
2109.000000, 84.147454
2110.000000, 84.658117
2111.000000, 85.088268
2112.000000, 85.483345
2113.000000, 85.798650
2114.000000, 86.032810
2115.000000, 86.181536
2116.000000, 86.244340
2117.000000, 86.187233
2118.000000, 86.023830
2119.000000, 85.801318
2120.000000, 85.487955
2121.000000, 85.120463
2122.000000, 84.678084
2123.000000, 84.219079
2124.000000, 83.663279
2125.000000, 83.100039
2126.000000, 82.547072
2127.000000, 82.016719
2128.000000, 81.440373
2129.000000, 80.934941
2130.000000, 80.479671
2131.000000, 80.077273
2132.000000, 79.694269
2133.000000, 79.341073
2134.000000, 79.094635
2135.000000, 78.916709
2136.000000, 78.785306
2137.000000, 78.761570
2138.000000, 78.790966
2139.000000, 78.874521
2140.000000, 79.042832
2141.000000, 79.286220
2142.000000, 79.585215
2143.000000, 79.950656
2144.000000, 80.334675
2145.000000, 80.794694
2146.000000, 81.254011
2147.000000, 81.760277
2148.000000, 82.269311
2149.000000, 82.738644
2150.000000, 83.219297
2151.000000, 83.666809
2152.000000, 84.060744
2153.000000, 84.421859
2154.000000, 84.718238
2155.000000, 84.965848
2156.000000, 85.084499
2157.000000, 85.187348
2158.000000, 85.166609
2159.000000, 85.119599
2160.000000, 84.961367
2161.000000, 84.746320
2162.000000, 84.480788
2163.000000, 84.149258
2164.000000, 83.767827
2165.000000, 83.333442
2166.000000, 82.930918
2167.000000, 82.498491
2168.000000, 82.057519
2169.000000, 81.653092
2170.000000, 81.271160
2171.000000, 80.866112
2172.000000, 80.508368
2173.000000, 80.214596
2174.000000, 79.967210
2175.000000, 79.794294
2176.000000, 79.627455
2177.000000, 79.524802
2178.000000, 79.489974
2179.000000, 79.525336
2180.000000, 79.599313
2181.000000, 79.748218
2182.000000, 79.918080
2183.000000, 80.140785
2184.000000, 80.373537
2185.000000, 80.649140
2186.000000, 80.931611
2187.000000, 81.240561
2188.000000, 81.546793
2189.000000, 81.827132
2190.000000, 82.095487
2191.000000, 82.352819
2192.000000, 82.547705
2193.000000, 82.663651
2194.000000, 82.720170
2195.000000, 82.750237
2196.000000, 82.703890
2197.000000, 82.547685
2198.000000, 82.295603
2199.000000, 81.945197
2200.000000, 81.495517
2200.900000, 81.048816
2201.710000, 80.602116
2202.510000, 80.149516
2203.320000, 79.710616
2204.120000, 79.274416
2204.920000, 78.826116
2205.730000, 78.415516
2206.530000, 78.041815
2207.330000, 77.674415
2208.140000, 77.321815
2208.940000, 77.015215
2209.740000, 76.762115
2210.550000, 76.533915
2211.350000, 76.347215
2212.150000, 76.213915
2212.960000, 76.130914
2213.760000, 76.097814
2214.560000, 76.107714
2215.370000, 76.169114
2216.170000, 76.275714
2216.980000, 76.416214
2217.780000, 76.621514
2218.580000, 76.878013
2219.390000, 77.178013
2220.190000, 77.535213
2220.990000, 77.925913
2221.800000, 78.354713
2222.600000, 78.816813
2223.400000, 79.300613
2224.210000, 79.817612
2225.010000, 80.354412
2225.810000, 80.894112
2226.620000, 81.432712
2227.420000, 81.979112
2228.220000, 82.523212
2229.030000, 83.049012
2229.830000, 83.563912
2230.640000, 84.054711
2231.440000, 84.505011
2232.240000, 84.908211
2233.050000, 85.280311
2233.850000, 85.596111
2234.650000, 85.848811
2235.460000, 86.035811
2236.260000, 86.170310
2237.060000, 86.231810
2237.870000, 86.197010
2238.670000, 86.106310
2239.470000, 85.966610
2240.280000, 85.763710
2241.080000, 85.494410
2241.890000, 85.152610
2242.690000, 84.755509
2243.490000, 84.313509
2244.300000, 83.823609
2245.100000, 83.287509
2245.900000, 82.735709
2246.710000, 82.169009
2247.510000, 81.567809
2248.310000, 80.954308
2249.120000, 80.349308
2249.920000, 79.742408
2250.720000, 79.137108
2251.530000, 78.552708
2252.330000, 77.995408
2253.130000, 77.455508
2253.940000, 76.949508
2254.740000, 76.485707
2255.550000, 76.058607
2256.350000, 75.686507
2257.150000, 75.357707
2257.960000, 75.061707
2258.760000, 74.837307
2259.560000, 74.674507
2260.370000, 74.559606
2261.170000, 74.495406
2261.970000, 74.477206
2262.780000, 74.531306
2263.580000, 74.648906
2264.380000, 74.806206
2265.190000, 75.011006
2265.990000, 75.272505
2266.800000, 75.599405
2267.600000, 75.976405
2268.400000, 76.391605
2269.210000, 76.848605
2270.010000, 77.356705
2270.810000, 77.915705
2271.620000, 78.494905
2272.420000, 79.081904
2273.220000, 79.696404
2274.030000, 80.336804
2274.830000, 80.982004
2275.630000, 81.629404
2276.440000, 82.267204
2277.240000, 82.895204
2278.040000, 83.499903
2278.850000, 84.079903
2279.650000, 84.634303
2280.460000, 85.149403
2281.260000, 85.622703
2282.060000, 86.041803
2282.870000, 86.401303
2283.670000, 86.694203
2284.470000, 86.920402
2285.280000, 87.084402
2286.080000, 87.185902
2286.880000, 87.210702
2287.690000, 87.154002
2288.490000, 87.037302
2289.290000, 86.855402
2290.100000, 86.598101
2290.900000, 86.270801
2291.700000, 85.888101
2292.510000, 85.458201
2293.310000, 84.978701
2294.120000, 84.471201
2294.920000, 83.932401
2295.720000, 83.377201
2296.530000, 82.811200
2297.330000, 82.216100
2298.130000, 81.604300
2298.940000, 80.992500
2299.740000, 80.396000
2300.540000, 79.816800
2301.350000, 79.260900
2302.150000, 78.732599
2302.950000, 78.233899
2303.760000, 77.776899
2304.560000, 77.361399
2305.370000, 76.974699
2306.170000, 76.627199
2306.970000, 76.334799
2307.780000, 76.088398
2308.580000, 75.897498
2309.380000, 75.750898
2310.190000, 75.669498
2310.990000, 75.654898
2311.790000, 75.679498
2312.600000, 75.753998
2313.400000, 75.871398
2314.200000, 76.052497
2315.010000, 76.290597
2315.810000, 76.588497
2316.610000, 76.928097
2317.420000, 77.306697
2318.220000, 77.735397
2319.030000, 78.208697
2319.830000, 78.715796
2320.630000, 79.249696
2321.440000, 79.811796
2322.240000, 80.395796
2323.040000, 81.007296
2323.850000, 81.632096
2324.650000, 82.256196
2325.450000, 82.886996
2326.260000, 83.525695
2327.060000, 84.141595
2327.860000, 84.737095
2328.670000, 85.318795
2329.470000, 85.867295
2330.270000, 86.366295
2331.080000, 86.830595
2331.880000, 87.235094
2332.690000, 87.584994
2333.490000, 87.890294
2334.290000, 88.139994
2335.100000, 88.307494
2335.900000, 88.409694
2336.700000, 88.451694
2337.510000, 88.408894
2338.310000, 88.284993
2339.110000, 88.109493
2339.920000, 87.876393
2340.720000, 87.576093
2341.520000, 87.218793
2342.330000, 86.792393
2343.130000, 86.316693
2343.940000, 85.801092
2344.740000, 85.246792
2345.540000, 84.657292
2346.350000, 84.049592
2347.150000, 83.411892
2347.950000, 82.762092
2348.760000, 82.118192
2349.560000, 81.476491
2350.360000, 80.836191
2351.170000, 80.203491
2351.970000, 79.590591
2352.770000, 78.998891
2353.580000, 78.428691
2354.380000, 77.877891
2355.180000, 77.360091
2355.990000, 76.878690
2356.790000, 76.446790
2357.600000, 76.054490
2358.400000, 75.707290
2359.200000, 75.400290
2360.010000, 75.149590
2360.810000, 74.941690
2361.610000, 74.767072
2362.420000, 74.637554
2363.220000, 74.564036
2364.020000, 74.527219
2364.830000, 74.549501
2365.630000, 74.624883
2366.430000, 74.744965
2367.240000, 74.902447
2368.040000, 75.111330
2368.850000, 75.361712
2369.650000, 75.661994
2370.450000, 76.004376
2371.260000, 76.392159
2372.060000, 76.810141
2372.860000, 77.253523
2373.670000, 77.724405
2374.470000, 78.236287
2375.270000, 78.775870
2376.080000, 79.330252
2376.880000, 79.898534
2377.680000, 80.480116
2378.490000, 81.063799
2379.290000, 81.652881
2380.090000, 82.255163
2380.900000, 82.846345
2381.700000, 83.417428
2382.510000, 83.979810
2383.310000, 84.524092
2384.110000, 85.052174
2384.920000, 85.546056
2385.720000, 86.008739
2386.520000, 86.430721
2387.330000, 86.813603
2388.130000, 87.155785
2388.930000, 87.456568
2389.740000, 87.714550
2390.540000, 87.925932
2391.340000, 88.093514
2392.150000, 88.211696
2392.950000, 88.277579
2393.750000, 88.287061
2394.560000, 88.262343
2395.360000, 88.190025
2396.170000, 88.078008
2396.970000, 87.933190
2397.770000, 87.755372
2398.580000, 87.544654
2399.380000, 87.310437
2400.180000, 87.056919
2400.990000, 86.776901
2401.790000, 86.475883
2402.590000, 86.157965
2403.400000, 85.838448
2404.200000, 85.525530
2405.000000, 85.212812
2405.810000, 84.901794
2406.610000, 84.608177
2407.420000, 84.325559
2408.220000, 84.043441
2409.020000, 83.783223
2409.830000, 83.560806
2410.630000, 83.354288
2411.430000, 83.165470
2412.240000, 83.005552
2413.040000, 82.874434
2413.840000, 82.770317
2414.650000, 82.694099
2415.450000, 82.655581
2416.250000, 82.642063
2417.060000, 82.657046
2417.860000, 82.704528
2418.660000, 82.780610
2419.470000, 82.886692
2420.270000, 83.023974
2421.080000, 83.194057
2421.880000, 83.380839
2422.680000, 83.585021
2423.490000, 83.814303
2424.290000, 84.065686
2425.090000, 84.336268
2425.900000, 84.619550
2426.700000, 84.908632
2427.500000, 85.207315
2428.310000, 85.521497
2429.110000, 85.835679
2429.910000, 86.137961
2430.720000, 86.433343
2431.520000, 86.721926
2432.320000, 87.003108
2433.130000, 87.275690
2433.930000, 87.530172
2434.740000, 87.763555
2435.540000, 87.973937
2436.340000, 88.137819
2437.150000, 88.264801
2437.950000, 88.370583
2438.750000, 88.452066
2439.560000, 88.503548
2440.360000, 88.513130
2441.160000, 88.490112
2441.970000, 88.431795
2442.770000, 88.329177
2443.570000, 88.192859
2444.380000, 88.016841
2445.180000, 87.813924
2445.990000, 87.589406
2446.790000, 87.320888
2447.590000, 87.016870
2448.400000, 86.691952
2449.200000, 86.356135
2450.000000, 86.003017
2450.810000, 85.623799
2451.610000, 85.224981
2452.410000, 84.809664
2453.220000, 84.394946
2454.020000, 83.984128
2454.820000, 83.574510
2455.630000, 83.164693
2456.430000, 82.760675
2457.230000, 82.368957
2458.040000, 81.987839
2458.840000, 81.619021
2459.650000, 81.268104
2460.450000, 80.938686
2461.250000, 80.639468
2462.060000, 80.370350
2462.860000, 80.123033
2463.660000, 79.897215
2464.470000, 79.697397
2465.270000, 79.524979
2466.070000, 79.383861
2466.880000, 79.280044
2467.680000, 79.219026
2468.480000, 79.180908
2469.290000, 79.165190
2470.090000, 79.195873
2470.890000, 79.264155
2471.700000, 79.372937
2472.500000, 79.507619
2473.310000, 79.650102
2474.110000, 79.826584
2474.910000, 80.040666
2475.720000, 80.281648
2476.520000, 80.560230
2477.320000, 80.871713
2478.130000, 81.202595
2478.930000, 81.543577
2479.730000, 81.896059
2480.540000, 82.264442
2481.340000, 82.650724
2482.140000, 83.052106
2482.950000, 83.467888
2483.750000, 83.902870
2484.560000, 84.332653
2485.360000, 84.725135
2486.160000, 85.113617
2486.970000, 85.523199
2487.770000, 85.936082
2488.570000, 86.318264
2489.380000, 86.669046
2490.180000, 87.004828
2490.980000, 87.318111
2491.790000, 87.608393
2492.590000, 87.869875
2493.390000, 88.101457
2494.200000, 88.320839
2495.000000, 88.495722
2495.800000, 88.603304
2496.610000, 88.676686
2497.410000, 88.720968
2498.220000, 88.726951
2499.020000, 88.694433
2499.820000, 88.616815
2500.630000, 88.507697
2501.430000, 88.373279
2502.230000, 88.218462
2503.040000, 88.027844
2503.840000, 87.775526
2504.640000, 87.499808
2505.450000, 87.226191
2506.250000, 86.907673
2507.050000, 86.535755
2507.860000, 86.170837
2508.660000, 85.816520
2509.470000, 85.447002
2510.270000, 85.064484
2511.070000, 84.672766
2511.880000, 84.269348
2512.680000, 83.874031
2513.480000, 83.491113
2514.290000, 83.133295
2515.090000, 82.796477
2515.890000, 82.451360
2516.700000, 82.106842
2517.500000, 81.775024
2518.300000, 81.463506
2519.110000, 81.192889
2519.910000, 80.935171
2520.710000, 80.686653
2521.520000, 80.479135
2522.320000, 80.320017
2523.130000, 80.207300
2523.930000, 80.132582
2524.730000, 80.043964
2525.540000, 79.964246
2526.340000, 79.933929
2527.140000, 79.946611
2527.950000, 79.981093
2528.750000, 80.046875
2529.550000, 80.159757
2530.360000, 80.320140
2531.160000, 80.540822
2531.960000, 80.800804
2532.770000, 81.034586
2533.570000, 81.243569
2534.370000, 81.453651
2535.180000, 81.755533
2535.980000, 82.158515
2536.790000, 82.527798
2537.590000, 82.795780
2538.390000, 83.105262
2539.200000, 83.487144
2540.000000, 83.881326
2540.800000, 84.293209
2541.610000, 84.757491
2542.410000, 85.276473
2543.210000, 85.817755
2544.020000, 86.270038
2544.820000, 86.649520
2545.620000, 86.985102
2546.430000, 87.316784
2547.230000, 87.763366
2548.040000, 88.295649
2548.840000, 88.651631
2549.640000, 88.852713
2550.450000, 89.130795
2551.250000, 89.467778
2552.050000, 89.746660
2552.860000, 90.012742
2553.660000, 90.166624
2554.460000, 90.186107
2555.270000, 90.231689
2556.070000, 90.298171
2556.870000, 90.347053
2557.680000, 90.369435
2558.480000, 90.379718
2559.280000, 90.430400
2560.090000, 90.563982
2560.890000, 90.671164
2561.700000, 90.579447
2562.500000, 90.332529
2563.300000, 90.017011
2564.110000, 89.750393
2564.910000, 89.401676
2565.710000, 88.909158
2566.520000, 88.488240
2567.320000, 88.196922
2568.120000, 87.989304
2568.930000, 87.837087
2569.730000, 87.512169
2570.530000, 86.897551
2571.340000, 86.389733
2572.140000, 86.094916
2572.940000, 85.917698
2573.750000, 85.602980
2574.550000, 85.169262
2575.360000, 84.826644
2576.160000, 84.608027
2576.960000, 84.317809
2577.770000, 83.809691
2578.570000, 83.391473
2579.370000, 83.171056
2580.180000, 83.073138
2580.980000, 83.019020
2581.780000, 82.823002
2582.590000, 82.689785
2583.390000, 82.757667
2584.190000, 82.708249
2585.000000, 82.341731
2585.800000, 82.175913
2586.610000, 82.257896
2587.410000, 82.430378
2588.210000, 82.447560
2589.020000, 82.381342
2589.820000, 82.327025
2590.620000, 82.301207
2591.430000, 82.399289
2592.230000, 82.682871
2593.030000, 83.025753
2593.840000, 83.352936
2594.640000, 83.852118
2595.440000, 84.416600
2596.250000, 84.429582
2597.050000, 84.370765
2597.850000, 84.427947
2598.660000, 84.569029
2599.460000, 84.806511
2600.270000, 85.149594
2601.070000, 85.590776
2601.870000, 86.059958
2602.680000, 86.436440
2603.480000, 86.890822
2604.280000, 87.440205
2605.090000, 87.873787
2605.890000, 88.162169
2606.690000, 88.339351
2607.500000, 88.494434
2608.300000, 88.634216
2609.100000, 88.795198
2609.910000, 89.021080
2610.710000, 89.171663
2611.520000, 89.290645
2612.320000, 89.509127
2613.120000, 89.761109
2613.930000, 89.881991
2614.730000, 89.946074
2615.530000, 90.094656
2616.340000, 90.397438
2617.140000, 90.638420
2617.940000, 90.412703
2618.750000, 90.128385
2619.550000, 90.049367
2620.350000, 89.981249
2621.160000, 89.602531
2621.960000, 89.179814
2622.760000, 88.868996
2623.570000, 88.597978
2624.370000, 88.356060
2625.180000, 88.192943
2625.980000, 88.116225
2626.780000, 87.902507
2627.590000, 87.397389
2628.390000, 87.057572
2629.190000, 86.965254
2630.000000, 86.942436
2630.800000, 86.487718
2631.600000, 85.736200
2632.410000, 85.321183
2633.210000, 85.051965
2634.010000, 84.651447
2634.820000, 84.083529
2635.620000, 83.613912
2636.420000, 83.267894
2637.230000, 82.962376
2638.030000, 82.679258
2638.840000, 82.416040
2639.640000, 82.175423
2640.440000, 81.988405
2641.250000, 81.867687
2642.050000, 81.730569
2642.850000, 81.494552
2643.660000, 81.273534
2644.460000, 81.198716
2645.260000, 81.227198
2646.070000, 81.217281
2646.870000, 81.080863
2647.670000, 80.944945
2648.480000, 80.908327
2649.280000, 80.943209
2650.090000, 81.033392
2650.890000, 81.188374
2651.690000, 81.432856
2652.500000, 81.742138
2653.300000, 81.927621
2654.100000, 82.034403
2654.910000, 82.252385
2655.710000, 82.567267
2656.510000, 82.804850
2657.320000, 83.003432
2658.120000, 83.281614
2658.920000, 83.680596
2659.730000, 84.233178
2660.530000, 84.735761
2661.330000, 85.049543
2662.140000, 85.408325
2662.940000, 85.808307
2663.750000, 86.228790
2664.550000, 86.827172
2665.350000, 87.741054
2666.160000, 88.461536
2666.960000, 88.818618
2667.760000, 89.064301
2668.570000, 89.270583
2669.370000, 89.528065
2670.170000, 89.959647
2670.980000, 90.499830
2671.780000, 90.735712
2672.580000, 90.939694
2673.390000, 91.231376
2674.190000, 91.544759
2674.990000, 91.897641
2675.800000, 92.369923
2676.600000, 92.909305
2677.410000, 93.190587
2678.210000, 93.067470
2679.010000, 92.875852
2679.820000, 92.666734
2680.620000, 92.400416
2681.420000, 92.192799
2682.230000, 92.087581
2683.030000, 92.010463
2683.830000, 91.753545
2684.640000, 91.279227
2685.440000, 90.826310
2686.240000, 90.322692
2687.050000, 89.565674
2687.850000, 88.799356
2688.660000, 88.085939
2689.460000, 87.236921
2690.260000, 86.385103
2691.070000, 85.670185
2691.870000, 85.038868
2692.670000, 84.550550
2693.480000, 84.131932
2694.280000, 83.477714
2695.080000, 82.637996
2695.890000, 81.673779
2696.690000, 80.625661
2697.490000, 79.786643
2698.300000, 79.069925
2699.100000, 78.362408
2699.900000, 77.728890
2700.710000, 77.135872
2701.510000, 76.311854
2702.320000, 75.415137
2703.120000, 74.746219
2703.920000, 74.179001
2704.730000, 73.628483
2705.530000, 73.082565
2706.330000, 72.557548
2707.140000, 72.112430
2707.940000, 71.809412
2708.740000, 71.596094
2709.550000, 71.318377
2710.350000, 70.930359
2711.150000, 70.432341
2711.960000, 69.882423
2712.760000, 69.487905
2713.570000, 69.229188
2714.370000, 69.008770
2715.170000, 68.830652
2715.980000, 68.735034
2716.780000, 68.736117
2717.580000, 68.792399
2718.390000, 68.848981
2719.190000, 68.944763
2719.990000, 69.190846
2720.800000, 69.478228
2721.600000, 69.448210
2722.400000, 69.342892
2723.210000, 69.435974
2724.010000, 69.764657
2724.810000, 70.224539
2725.620000, 70.438021
2726.420000, 70.465603
2727.230000, 70.569786
2728.030000, 70.787668
2728.830000, 71.085950
2729.640000, 71.433132
2730.440000, 71.823014
2731.240000, 72.255797
2732.050000, 72.722279
2732.850000, 73.190261
2733.650000, 73.652443
2734.460000, 74.201126
2735.260000, 74.841808
2736.060000, 75.347490
2736.870000, 75.716872
2737.670000, 76.142655
2738.470000, 76.755037
2739.280000, 77.695219
2740.080000, 78.683301
2740.890000, 79.222183
2741.690000, 79.555766
2742.490000, 79.768648
2743.300000, 79.905030
2744.100000, 80.127312
2744.900000, 80.506495
2745.710000, 80.962977
2746.510000, 81.359859
2747.310000, 81.700441
2748.120000, 82.073023
2748.920000, 82.452606
2749.720000, 82.777388
2750.530000, 83.087570
2751.330000, 83.451052
2752.140000, 83.805035
2752.940000, 84.047817
2753.740000, 84.265799
2754.550000, 84.605281
2755.350000, 85.042764
2756.150000, 85.120346
2756.960000, 84.900628
2757.760000, 84.722810
2758.560000, 84.571192
2759.370000, 84.439675
2760.170000, 84.346657
2760.970000, 84.291239
2761.780000, 84.255821
2762.580000, 84.187504
2763.380000, 84.011286
2764.190000, 83.697868
2764.990000, 83.372750
2765.800000, 83.135533
2766.600000, 82.937215
2767.400000, 82.678597
2768.210000, 82.322479
2769.010000, 81.980461
2769.810000, 81.775544
2770.620000, 81.663726
2771.420000, 81.520008
2772.220000, 81.249390
2773.030000, 80.860973
2773.830000, 80.511255
2774.630000, 80.267137
2775.440000, 80.102419
2776.240000, 79.986301
2777.040000, 79.869284
2777.850000, 79.697166
2778.650000, 79.470148
2779.460000, 79.239630
2780.260000, 79.074513
2781.060000, 78.985995
2781.870000, 78.898877
2782.670000, 78.752559
2783.470000, 78.559742
2784.280000, 78.392224
2785.080000, 78.320406
2785.880000, 78.365588
2786.690000, 78.512970
2787.490000, 78.648953
2788.290000, 78.616035
2789.100000, 78.480617
2789.900000, 78.407199
2790.710000, 78.422282
2791.510000, 78.483064
2792.310000, 78.581746
2793.120000, 78.726428
2793.920000, 78.890110
2794.720000, 79.065393
2795.530000, 79.276475
2796.330000, 79.513857
2797.130000, 79.760539
2797.940000, 80.012522
2798.740000, 80.264104
2799.540000, 80.534786
2800.350000, 80.855268
2801.150000, 81.229551
2801.950000, 81.679433
2802.760000, 82.248515
2803.560000, 82.834897
2804.370000, 83.199879
2805.170000, 83.368162
2805.970000, 83.546044
2806.780000, 83.814926
2807.580000, 84.135608
2808.380000, 84.481691
2809.190000, 84.829573
2809.990000, 85.149255
2810.790000, 85.462837
2811.600000, 85.793820
2812.400000, 86.134902
2813.200000, 86.495784
2814.010000, 86.892566
2814.810000, 87.292348
2815.610000, 87.616731
2816.420000, 87.847613
2817.220000, 88.066195
2818.030000, 88.342877
2818.830000, 88.672160
2819.630000, 88.992642
2820.440000, 89.242524
2821.240000, 89.394306
2822.040000, 89.452788
2822.850000, 89.463071
2823.650000, 89.473553
2824.450000, 89.505035
2825.260000, 89.553517
2826.060000, 89.613500
2826.860000, 89.682882
2827.670000, 89.722564
2828.470000, 89.676946
2829.280000, 89.568229
2830.080000, 89.462911
2830.880000, 89.382593
2831.690000, 89.312875
2832.490000, 89.239057
2833.290000, 89.155440
2834.100000, 89.049622
2834.900000, 88.893204
2835.700000, 88.683686
2836.510000, 88.472469
2837.310000, 88.295251
2838.110000, 88.097533
2838.920000, 87.805115
2839.720000, 87.466697
2840.520000, 87.173680
2841.330000, 86.927662
2842.130000, 86.681844
2842.940000, 86.420426
2843.740000, 86.159709
2844.540000, 85.914291
2845.350000, 85.688973
2846.150000, 85.478655
2846.950000, 85.279038
2847.760000, 85.097520
2848.560000, 84.935002
2849.360000, 84.757484
2850.170000, 84.534866
2850.970000, 84.304749
2851.770000, 84.125931
2852.580000, 84.015713
2853.380000, 83.958095
2854.190000, 83.910078
2854.990000, 83.815560
2855.790000, 83.663742
2856.600000, 83.504724
2857.400000, 83.387407
2858.200000, 83.325589
2859.010000, 83.309371
2859.810000, 83.315753
2860.610000, 83.319835
2861.420000, 83.317318
2862.220000, 83.325800
2863.020000, 83.361882
2863.830000, 83.426664
2864.630000, 83.514847
2865.430000, 83.630729
2866.240000, 83.777811
2867.040000, 83.935493
2867.850000, 84.078975
2868.650000, 84.215358
2869.450000, 84.367940
2870.260000, 84.554222
2871.060000, 84.781904
2871.860000, 85.030187
2872.670000, 85.257569
2873.470000, 85.451651
2874.270000, 85.635933
2875.080000, 85.835216
2875.880000, 86.063098
2876.680000, 86.322480
2877.490000, 86.598962
2878.290000, 86.862944
2879.090000, 87.103227
2879.900000, 87.339909
2880.700000, 87.588991
2881.510000, 87.845773
2882.310000, 88.100556
2883.110000, 88.352138
2883.920000, 88.599620
2884.720000, 88.830302
2885.520000, 89.037684
2886.330000, 89.238267
2887.130000, 89.446349
2887.930000, 89.648831
2888.740000, 89.822413
2889.540000, 89.963696
2890.340000, 90.084578
2891.150000, 90.193560
2891.950000, 90.291942
2892.760000, 90.377425
2893.560000, 90.446107
2894.360000, 90.494189
2895.170000, 90.520871
2895.970000, 90.528253
2896.770000, 90.518136
2897.580000, 90.492918
2898.380000, 90.461700
2899.180000, 90.440582
2899.990000, 90.428065
2900.790000, 90.373947
2901.590000, 90.228729
2902.400000, 90.028011
2903.200000, 89.836693
2904.000000, 89.666476
2904.810000, 89.483558
2905.610000, 89.266840
2906.420000, 89.032222
2907.220000, 88.796705
2908.020000, 88.558787
2908.830000, 88.311969
2909.630000, 88.054251
2910.430000, 87.787334
2911.240000, 87.515016
2912.040000, 87.237798
2912.840000, 86.954480
2913.650000, 86.665662
2914.450000, 86.373645
2915.250000, 86.081927
2916.060000, 85.795109
2916.860000, 85.512291
2917.660000, 85.227074
2918.470000, 84.940156
2919.270000, 84.662538
2920.080000, 84.402620
2920.880000, 84.162303
2921.680000, 83.940385
2922.490000, 83.730467
2923.290000, 83.513849
2924.090000, 83.276331
2924.900000, 83.031014
2925.700000, 82.804996
2926.500000, 82.609478
2927.310000, 82.440160
2928.110000, 82.290143
2928.910000, 82.154225
2929.720000, 82.030807
2930.520000, 81.922089
2931.330000, 81.830571
2932.130000, 81.757754
2932.930000, 81.702436
2933.740000, 81.660618
2934.540000, 81.633200
2935.340000, 81.623983
2936.150000, 81.633765
2936.950000, 81.661547
2937.750000, 81.708729
2938.560000, 81.776012
2939.360000, 81.860594
2940.160000, 81.958976
2940.970000, 82.069358
2941.770000, 82.195240
2942.570000, 82.342323
2943.380000, 82.509605
2944.180000, 82.686787
2944.990000, 82.869569
2945.790000, 83.069052
2946.590000, 83.297234
2947.400000, 83.545916
2948.200000, 83.791998
2949.000000, 84.025580
2949.810000, 84.262363
2950.610000, 84.518745
2951.410000, 84.793927
2952.220000, 85.082409
2953.020000, 85.387292
2953.820000, 85.709274
2954.630000, 86.033456
2955.430000, 86.347038
2956.240000, 86.654621
2957.040000, 86.966003
2957.840000, 87.282985
2958.650000, 87.601767
2959.450000, 87.919949
2960.250000, 88.237732
2961.060000, 88.553714
2961.860000, 88.864596
2962.660000, 89.167278
2963.470000, 89.459861
2964.270000, 89.742043
2965.070000, 90.015625
2965.880000, 90.282907
2966.680000, 90.544090
2967.480000, 90.797272
2968.290000, 91.041054
2969.090000, 91.271736
2969.900000, 91.480418
2970.700000, 91.661701
2971.500000, 91.816583
2972.310000, 91.946865
2973.110000, 92.061047
2973.910000, 92.167530
2974.720000, 92.261912
2975.520000, 92.333894
2976.320000, 92.379776
2977.130000, 92.404058
2977.930000, 92.412341
2978.730000, 92.405423
2979.540000, 92.377605
2980.340000, 92.322387
2981.140000, 92.242770
2981.950000, 92.149952
2982.750000, 92.049934
2983.560000, 91.939516
2984.360000, 91.812199
2985.160000, 91.663681
2985.970000, 91.493663
2986.770000, 91.306145
2987.570000, 91.106427
2988.380000, 90.899810
2989.180000, 90.689092
2989.980000, 90.473974
2990.790000, 90.251956
2991.590000, 90.019939
2992.390000, 89.777521
2993.200000, 89.527403
2994.000000, 89.274185
2994.810000, 89.022367
2995.610000, 88.775250
2996.410000, 88.526832
2997.220000, 88.267714
2998.020000, 87.998996
2998.820000, 87.728979
2999.630000, 87.465161
3000.430000, 87.211743
3001.230000, 86.969625
3002.040000, 86.738108
3002.840000, 86.515690
3003.640000, 86.302472
3004.450000, 86.101454
3005.250000, 85.915336
3006.050000, 85.740619
3006.860000, 85.570301
3007.660000, 85.401883
3008.470000, 85.239565
3009.270000, 85.087948
3010.070000, 84.949530
3010.880000, 84.827212
3011.680000, 84.725094
3012.480000, 84.643577
3013.290000, 84.576859
3014.090000, 84.518441
3014.890000, 84.469423
3015.700000, 84.438005
3016.500000, 84.431988
3017.300000, 84.446670
3018.110000, 84.473952
3018.910000, 84.510634
3019.710000, 84.559717
3020.520000, 84.627199
3021.320000, 84.714681
3022.130000, 84.815863
3022.930000, 84.920145
3023.730000, 85.022628
3024.540000, 85.131910
3025.340000, 85.260692
3026.140000, 85.411274
3026.950000, 85.575757
3027.750000, 85.750839
3028.550000, 85.935721
3029.360000, 86.129903
3030.160000, 86.334086
3030.960000, 86.550568
3031.770000, 86.780450
3032.570000, 87.020132
3033.380000, 87.262214
3034.180000, 87.502997
3034.980000, 87.746579
3035.790000, 87.996761
3036.590000, 88.254843
3037.390000, 88.516426
3038.200000, 88.772908
3039.000000, 89.018990
3039.800000, 89.257272
3040.610000, 89.494454
3041.410000, 89.733337
3042.210000, 89.970219
3043.020000, 90.202201
3043.820000, 90.430283
3044.620000, 90.653866
3045.430000, 90.871148
3046.230000, 91.079630
3047.040000, 91.277812
3047.840000, 91.463595
3048.640000, 91.632877
3049.450000, 91.782059
3050.250000, 91.918241
3051.050000, 92.055623
3051.860000, 92.187606
3052.660000, 92.298188
3053.460000, 92.382570
3054.270000, 92.443452
3055.070000, 92.483235
3055.870000, 92.501617
3056.680000, 92.499599
3057.480000, 92.479481
3058.280000, 92.439264
3059.090000, 92.382746
3059.890000, 92.313328
3060.700000, 92.231010
3061.500000, 92.133592
3062.300000, 92.018475
3063.110000, 91.884357
3063.910000, 91.731739
3064.710000, 91.562221
3065.520000, 91.378604
3066.320000, 91.185286
3067.120000, 90.979368
3067.930000, 90.758350
3068.730000, 90.523232
3069.530000, 90.277115
3070.340000, 90.022497
3071.140000, 89.761679
3071.950000, 89.495161
3072.750000, 89.212344
3073.550000, 88.910926
3074.360000, 88.601808
3075.160000, 88.293990
3075.960000, 87.989473
3076.770000, 87.685855
3077.570000, 87.380837
3078.370000, 87.074619
3079.180000, 86.771701
3079.980000, 86.479284
3080.780000, 86.191866
3081.590000, 85.896548
3082.390000, 85.591230
3083.190000, 85.285813
3084.000000, 84.992695
3084.800000, 84.713377
3085.610000, 84.441059
3086.410000, 84.174341
3087.210000, 83.917224
3088.020000, 83.672406
3088.820000, 83.439388
3089.620000, 83.216170
3090.430000, 83.001753
3091.230000, 82.798835
3092.030000, 82.612517
3092.840000, 82.437899
3093.640000, 82.271082
3094.440000, 82.115964
3095.250000, 81.977046
3096.050000, 81.855428
3096.860000, 81.748110
3097.660000, 81.651293
3098.460000, 81.564875
3099.270000, 81.489657
3100.070000, 81.429939
3100.870000, 81.389122
3101.680000, 81.367504
3102.480000, 81.363386
3103.280000, 81.373868
3104.090000, 81.400351
3104.890000, 81.445533
3105.690000, 81.503415
3106.500000, 81.569097
3107.300000, 81.643579
3108.100000, 81.732462
3108.910000, 81.842244
3109.710000, 81.974426
3110.520000, 82.126208
3111.320000, 82.285891
3112.120000, 82.447673
3112.930000, 82.614555
3113.730000, 82.794837
3114.530000, 82.996019
3115.340000, 83.216602
3116.140000, 83.443384
3116.940000, 83.670566
3117.750000, 83.905148
3118.550000, 84.151431
3119.350000, 84.409213
3120.160000, 84.674895
3120.960000, 84.946077
3121.760000, 85.224760
3122.570000, 85.509642
3123.370000, 85.799324
3124.180000, 86.093606
3124.980000, 86.393788
3125.780000, 86.702771
3126.590000, 87.021553
3127.390000, 87.340035
3128.190000, 87.646217
3129.000000, 87.940900
3129.800000, 88.228082
3130.600000, 88.511964
3131.410000, 88.794946
3132.210000, 89.077628
3133.010000, 89.358711
3133.820000, 89.635993
3134.620000, 89.907475
3135.430000, 90.170757
3136.230000, 90.423740
3137.030000, 90.665022
3137.840000, 90.894404
3138.640000, 91.116786
3139.440000, 91.328869
3140.250000, 91.525251
3141.050000, 91.702733
3141.850000, 91.862015
3142.660000, 92.006897
3143.460000, 92.139380
3144.260000, 92.262062
3145.070000, 92.375644
3145.870000, 92.476726
3146.670000, 92.558409
3147.480000, 92.610891
3148.280000, 92.629573
3149.090000, 92.634055
3149.890000, 92.629237
3150.690000, 92.614920
3151.500000, 92.588302
3152.300000, 92.546784
3153.100000, 92.486866
3153.910000, 92.410649
3154.710000, 92.319631
3155.510000, 92.214913
3156.320000, 92.097495
3157.120000, 91.968278
3157.920000, 91.825760
3158.730000, 91.671642
3159.530000, 91.508024
3160.330000, 91.334506
3161.140000, 91.150289
3161.940000, 90.954871
3162.750000, 90.748153
3163.550000, 90.534235
3164.350000, 90.316918
3165.160000, 90.097100
3165.960000, 89.875182
3166.760000, 89.649964
3167.570000, 89.420147
3168.370000, 89.187229
3169.170000, 88.954311
3169.980000, 88.723493
3170.780000, 88.495275
3171.580000, 88.269158
3172.390000, 88.043140
3173.190000, 87.816922
3174.000000, 87.591804
3174.800000, 87.369587
3175.600000, 87.152369
3176.410000, 86.941951
3177.210000, 86.741533
3178.010000, 86.549115
3178.820000, 86.364098
3179.620000, 86.186580
3180.420000, 86.016462
3181.230000, 85.854844
3182.030000, 85.705527
3182.830000, 85.569409
3183.640000, 85.445991
3184.440000, 85.333073
3185.240000, 85.227956
3186.050000, 85.130238
3186.850000, 85.043020
3187.660000, 84.967602
3188.460000, 84.906084
3189.260000, 84.860667
3190.070000, 84.834249
3190.870000, 84.828831
3191.670000, 84.828713
3192.480000, 84.830996
3193.280000, 84.838278
3194.080000, 84.856460
3194.890000, 84.892642
3195.690000, 84.945024
3196.490000, 85.013207
3197.300000, 85.097589
3198.100000, 85.196471
3198.910000, 85.306053
3199.710000, 85.426336
3200.510000, 85.560418
3201.320000, 85.708900
3202.120000, 85.868782
3202.920000, 86.034565
3203.730000, 86.201547
3204.530000, 86.378029
3205.330000, 86.568611
3206.140000, 86.771993
3206.940000, 86.983876
3207.740000, 87.200458
3208.550000, 87.426040
3209.350000, 87.658822
3210.150000, 87.894205
3210.960000, 88.129087
3211.760000, 88.364269
3212.570000, 88.607451
3213.370000, 88.857934
3214.170000, 89.114516
3214.980000, 89.375998
3215.780000, 89.641380
3216.580000, 89.906362
3217.390000, 90.166945
3218.190000, 90.422427
3218.990000, 90.673409
3219.800000, 90.921591
3220.600000, 91.170874
3221.400000, 91.423256
3222.210000, 91.677138
3223.010000, 91.930320
3223.810000, 92.179702
3224.620000, 92.416485
3225.420000, 92.635567
3226.230000, 92.836849
3227.030000, 93.022731
3227.830000, 93.198214
3228.640000, 93.369896
3229.440000, 93.535578
3230.240000, 93.688060
3231.050000, 93.822843
3231.850000, 93.937525
3232.650000, 94.029507
3233.460000, 94.106889
3234.260000, 94.172571
3235.060000, 94.227654
3235.870000, 94.272336
3236.670000, 94.297818
3237.480000, 94.306700
3238.280000, 94.298983
3239.080000, 94.273965
3239.890000, 94.230047
3240.690000, 94.163829
3241.490000, 94.085511
3242.300000, 93.995794
3243.100000, 93.894176
3243.900000, 93.776658
3244.710000, 93.638540
3245.510000, 93.484723
3246.310000, 93.314705
3247.120000, 93.127887
3247.920000, 92.920969
3248.720000, 92.695452
3249.530000, 92.455834
3250.330000, 92.203916
3251.140000, 91.941698
3251.940000, 91.670980
3252.740000, 91.393563
3253.550000, 91.108745
3254.350000, 90.816327
3255.150000, 90.516709
3255.960000, 90.211392
3256.760000, 89.903574
3257.560000, 89.594456
3258.370000, 89.285038
3259.170000, 88.976321
3259.970000, 88.662103
3260.780000, 88.340185
3261.580000, 88.011467
3262.380000, 87.677649
3263.190000, 87.338232
3263.990000, 86.996014
3264.800000, 86.657996
3265.600000, 86.327978
3266.400000, 86.009461
3267.210000, 85.698743
3268.010000, 85.391025
3268.810000, 85.088707
3269.620000, 84.794689
3270.420000, 84.514772
3271.220000, 84.240954
3272.030000, 83.967536
3272.830000, 83.694618
3273.630000, 83.425001
3274.440000, 83.169783
3275.240000, 82.926665
3276.050000, 82.694947
3276.850000, 82.474130
3277.650000, 82.267112
3278.460000, 82.074394
3279.260000, 81.892376
3280.060000, 81.719558
3280.870000, 81.554841
3281.670000, 81.403223
3282.470000, 81.264305
3283.280000, 81.138187
3284.080000, 81.025070
3284.880000, 80.927452
3285.690000, 80.842634
3286.490000, 80.769216
3287.290000, 80.707298
3288.100000, 80.658381
3288.900000, 80.623663
3289.710000, 80.600245
3290.510000, 80.588827
3291.310000, 80.590110
3292.120000, 80.612992
3292.920000, 80.651674
3293.720000, 80.705456
3294.530000, 80.772839
3295.330000, 80.853921
3296.130000, 80.944603
3296.940000, 81.045285
3297.740000, 81.156867
3298.540000, 81.282050
3299.350000, 81.415432
3300.150000, 81.553314
3300.960000, 81.696796
3301.760000, 81.849579
3302.560000, 82.020461
3303.370000, 82.205443
3304.170000, 82.403825
3304.970000, 82.614507
3305.780000, 82.836390
3306.580000, 83.063172
3307.380000, 83.296254
3308.190000, 83.537236
3308.990000, 83.792419
3309.790000, 84.057501
3310.600000, 84.328783
3311.400000, 84.605265
3312.200000, 84.889148
3313.010000, 85.182130
3313.810000, 85.480812
3314.620000, 85.783894
3315.420000, 86.089276
3316.220000, 86.394359
3317.030000, 86.700141
3317.830000, 87.008223
3318.630000, 87.321105
3319.440000, 87.636088
3320.240000, 87.946070
3321.040000, 88.249752
3321.850000, 88.546034
3322.650000, 88.836017
3323.450000, 89.122299
3324.260000, 89.406181
3325.060000, 89.689163
3325.860000, 89.973445
3326.670000, 90.256528
3327.470000, 90.536210
3328.280000, 90.810092
3329.080000, 91.067474
3329.880000, 91.311557
3330.690000, 91.543539
3331.490000, 91.764721
3332.290000, 91.974803
3333.100000, 92.179485
3333.900000, 92.377668
3334.700000, 92.568450
3335.510000, 92.740432
3336.310000, 92.896914
3337.110000, 93.039097
3337.920000, 93.167979
3338.720000, 93.280961
3339.530000, 93.382243
3340.330000, 93.470626
3341.130000, 93.544108
3341.940000, 93.593990
3342.740000, 93.628072
3343.540000, 93.647454
3344.350000, 93.652337
3345.150000, 93.641019
3345.950000, 93.618601
3346.760000, 93.584683
3347.560000, 93.537066
3348.360000, 93.472048
3349.170000, 93.395730
3349.970000, 93.308212
3350.770000, 93.208194
3351.580000, 93.094477
3352.380000, 92.971159
3353.190000, 92.837741
3353.990000, 92.690723
3354.790000, 92.529006
3355.600000, 92.357788
3356.400000, 92.177670
3357.200000, 91.985652
3358.010000, 91.781335
3358.810000, 91.568917
3359.610000, 91.350299
3360.420000, 91.128681
3361.220000, 90.903263
3362.020000, 90.671946
3362.830000, 90.432928
3363.630000, 90.182710
3364.430000, 89.929492
3365.240000, 89.675075
3366.040000, 89.421557
3366.850000, 89.170139
3367.650000, 88.919721
3368.450000, 88.670504
3369.260000, 88.422686
3370.060000, 88.176168
3370.860000, 87.929750
3371.670000, 87.683432
3372.470000, 87.438315
3373.270000, 87.198397
3374.080000, 86.964079
3374.880000, 86.736161
3375.680000, 86.516944
3376.490000, 86.301826
3377.290000, 86.090108
3378.100000, 85.881590
3378.900000, 85.678372
3379.700000, 85.480555
3380.510000, 85.288737
3381.310000, 85.105719
3382.110000, 84.932801
3382.920000, 84.768684
3383.720000, 84.613766
3384.520000, 84.473348
3385.330000, 84.342930
3386.130000, 84.220313
3386.930000, 84.104795
3387.740000, 83.995677
3388.540000, 83.891959
3389.340000, 83.794741
3390.150000, 83.709424
3390.950000, 83.639306
3391.760000, 83.580188
3392.560000, 83.531670
3393.360000, 83.494053
3394.170000, 83.461735
3394.970000, 83.435317
3395.770000, 83.416799
3396.580000, 83.412381
3397.380000, 83.417564
3398.180000, 83.432046
3398.990000, 83.458328
3399.790000, 83.494510
3400.590000, 83.539293
3401.400000, 83.593375
3402.200000, 83.661657
3403.000000, 83.736639
3403.810000, 83.817622
3404.610000, 83.905204
3405.420000, 84.000786
3406.220000, 84.103168
3407.020000, 84.212950
3407.830000, 84.335433
3408.630000, 84.465715
3409.430000, 84.602797
3410.240000, 84.746779
3411.040000, 84.896462
3411.840000, 85.050744
3412.650000, 85.210026
3413.450000, 85.376908
3414.250000, 85.547291
3415.060000, 85.721073
3415.860000, 85.898755
3416.670000, 86.081937
3417.470000, 86.268619
3418.270000, 86.458502
3419.080000, 86.651284
3419.880000, 86.846166
3420.680000, 87.043248
3421.490000, 87.243831
3422.290000, 87.446513
3423.090000, 87.648395
3423.900000, 87.848677
3424.700000, 88.045659
3425.500000, 88.242142
3426.310000, 88.437924
3427.110000, 88.632506
3427.910000, 88.822688
3428.720000, 89.009171
3429.520000, 89.191553
3430.330000, 89.368235
3431.130000, 89.541717
3431.930000, 89.712000
3432.740000, 89.877482
3433.540000, 90.037164
3434.340000, 90.191046
3435.150000, 90.337328
3435.950000, 90.472211
3436.750000, 90.599893
3437.560000, 90.720275
3438.360000, 90.828457
3439.160000, 90.928440
3439.970000, 91.021422
3440.770000, 91.106204
3441.580000, 91.180786
3442.380000, 91.246868
3443.180000, 91.303551
3443.990000, 91.345333
3444.790000, 91.378915
3445.590000, 91.404497
3446.400000, 91.417380
3447.200000, 91.419362
3448.000000, 91.412444
3448.810000, 91.394226
3449.610000, 91.364209
3450.410000, 91.326791
3451.220000, 91.282373
3452.020000, 91.223855
3452.820000, 91.155537
3453.630000, 91.077720
3454.430000, 90.986102
3455.240000, 90.885784
3456.040000, 90.778666
3456.840000, 90.663249
3457.650000, 90.537131
3458.450000, 90.403213
3459.250000, 90.260695
3460.060000, 90.105478
3460.860000, 89.944060
3461.660000, 89.776742
3462.470000, 89.601824
3463.270000, 89.422806
3464.070000, 89.240389
3464.880000, 89.053471
3465.680000, 88.860953
3466.480000, 88.664035
3467.290000, 88.461518
3468.090000, 88.253300
3468.900000, 88.042982
3469.700000, 87.830964
3470.500000, 87.616646
3471.310000, 87.400329
3472.110000, 87.182111
3472.910000, 86.960693
3473.720000, 86.739175
3474.520000, 86.518458
3475.320000, 86.300540
3476.130000, 86.085422
3476.930000, 85.871504
3477.730000, 85.657987
3478.540000, 85.443469
3479.340000, 85.229251
3480.150000, 85.015733
3480.950000, 84.806015
3481.750000, 84.598498
3482.560000, 84.393080
3483.360000, 84.190662
3484.160000, 83.991644
3484.970000, 83.796227
3485.770000, 83.609709
3486.570000, 83.430691
3487.380000, 83.257173
3488.180000, 83.089755
3488.980000, 82.926338
3489.790000, 82.765620
3490.590000, 82.608202
3491.390000, 82.456984
3492.200000, 82.311167
3493.000000, 82.172249
3493.810000, 82.044031
3494.610000, 81.921913
3495.410000, 81.805796
3496.220000, 81.699978
3497.020000, 81.598160
3497.820000, 81.500442
3498.630000, 81.408624
3499.430000, 81.322507
3500.230000, 81.242089
3501.040000, 81.173171
3501.840000, 81.111853
3502.640000, 81.056636
3503.450000, 81.010818
3504.250000, 80.972600
3505.050000, 80.939682
3505.860000, 80.913764
3506.660000, 80.893547
3507.470000, 80.878029
3508.270000, 80.869511
3509.070000, 80.869793
3509.880000, 80.875576
3510.680000, 80.888358
3511.480000, 80.908140
3512.290000, 80.932022
3513.090000, 80.960905
3513.890000, 80.996887
3514.700000, 81.036869
3515.500000, 81.081651
3516.300000, 81.132333
3517.110000, 81.186116
3517.910000, 81.243198
3518.720000, 81.305780
3519.520000, 81.371562
3520.320000, 81.440845
3521.130000, 81.516427
3521.930000, 81.594609
3522.730000, 81.675191
3523.540000, 81.758674
3524.340000, 81.843756
3525.140000, 81.930438
3525.950000, 82.021520
3526.750000, 82.113902
3527.550000, 82.207585
3528.360000, 82.301167
3529.160000, 82.395049
3529.960000, 82.489431
3530.770000, 82.585014
3531.570000, 82.679796
3532.380000, 82.773778
3533.180000, 82.865060
3533.980000, 82.955542
3534.790000, 83.045525
3535.590000, 83.134707
3536.390000, 83.222289
3537.200000, 83.308271
3538.000000, 83.389754
3538.800000, 83.468436
3539.610000, 83.544818
3540.410000, 83.617000
3541.210000, 83.686083
3542.020000, 83.752165
3542.820000, 83.811047
3543.630000, 83.865729
3544.430000, 83.916711
3545.230000, 83.960894
3546.040000, 84.000776
3546.840000, 84.036658
3547.640000, 84.062440
3548.450000, 84.082923
3549.250000, 84.098205
3550.050000, 84.105487
3550.860000, 84.108769
3551.660000, 84.107951
3552.460000, 84.095834
3553.270000, 84.077416
3554.070000, 84.051798
3554.870000, 84.016980
3555.680000, 83.978363
3556.480000, 83.935445
3557.290000, 83.885127
3558.090000, 83.829909
3558.890000, 83.767992
3559.700000, 83.695274
3560.500000, 83.616456
3561.300000, 83.529438
3562.110000, 83.433320
3562.910000, 83.332603
3563.710000, 83.225485
3564.520000, 83.112067
3565.320000, 82.994849
3566.120000, 82.871432
3566.930000, 82.741414
3567.730000, 82.607196
3568.530000, 82.465778
3569.340000, 82.320161
3570.140000, 82.171943
3570.950000, 82.020925
3571.750000, 81.867607
3572.550000, 81.712089
3573.360000, 81.548972
3574.160000, 81.380354
3574.960000, 81.207236
3575.770000, 81.027118
3576.570000, 80.844901
3577.370000, 80.660483
3578.180000, 80.471965
3578.980000, 80.282647
3579.780000, 80.092229
3580.590000, 79.904512
3581.390000, 79.717994
3582.200000, 79.533276
3583.000000, 79.347058
3583.800000, 79.159541
3584.610000, 78.969923
3585.410000, 78.780005
3586.210000, 78.590387
3587.020000, 78.401770
3587.820000, 78.214252
3588.620000, 78.027434
3589.430000, 77.842716
3590.230000, 77.659698
3591.030000, 77.478281
3591.840000, 77.300963
3592.640000, 77.126145
3593.440000, 76.954327
3594.250000, 76.788010
3595.050000, 76.624392
3595.860000, 76.464374
3596.660000, 76.307556
3597.460000, 76.152438
3598.270000, 76.000121
3599.070000, 75.851403
3599.870000, 75.705485
3600.680000, 75.566167
3601.480000, 75.431450
3602.280000, 75.300232
3603.090000, 75.176214
3603.890000, 75.055496
3604.690000, 74.938579
3605.500000, 74.827561
3606.300000, 74.719043
3607.100000, 74.613825
3607.910000, 74.513407
3608.710000, 74.416690
3609.520000, 74.328472
3610.320000, 74.248454
3611.120000, 74.173736
3611.930000, 74.106919
3612.730000, 74.042301
3613.530000, 73.979583
3614.340000, 73.921065
3615.140000, 73.866048
3615.940000, 73.816130
3616.750000, 73.775312
3617.550000, 73.738894
3618.350000, 73.709276
3619.160000, 73.684659
3619.960000, 73.663141
3620.770000, 73.647723
3621.570000, 73.635605
3622.370000, 73.626188
3623.180000, 73.621270
3623.980000, 73.618552
3624.780000, 73.619034
3625.590000, 73.626316
3626.390000, 73.637299
3627.190000, 73.655381
3628.000000, 73.676863
3628.800000, 73.700445
3629.600000, 73.725928
3630.410000, 73.752910
3631.210000, 73.781392
3632.010000, 73.814774
3632.820000, 73.850857
3633.620000, 73.891239
3634.430000, 73.935121
3635.230000, 73.980103
3636.030000, 74.025585
3636.840000, 74.070968
3637.640000, 74.116450
3638.440000, 74.165032
3639.250000, 74.214414
3640.050000, 74.264997
3640.850000, 74.314679
3641.660000, 74.363961
3642.460000, 74.412643
3643.260000, 74.461125
3644.070000, 74.509608
3644.870000, 74.556690
3645.670000, 74.603172
3646.480000, 74.648954
3647.280000, 74.694437
3648.090000, 74.739619
3648.890000, 74.784101
3649.690000, 74.826783
3650.500000, 74.868266
3651.300000, 74.905348
3652.100000, 74.939830
3652.910000, 74.971112
3653.710000, 74.997194
3654.510000, 75.020677
3655.320000, 75.039259
3656.120000, 75.053341
3656.920000, 75.064723
3657.730000, 75.068706
3658.530000, 75.069488
3659.340000, 75.066370
3660.140000, 75.058952
3660.940000, 75.049635
3661.750000, 75.036217
3662.550000, 75.017099
3663.350000, 74.994481
3664.160000, 74.961563
3664.960000, 74.925646
3665.760000, 74.885228
3666.570000, 74.839110
3667.370000, 74.789892
3668.170000, 74.732275
3668.980000, 74.668357
3669.780000, 74.599439
3670.580000, 74.521321
3671.390000, 74.439603
3672.190000, 74.351486
3673.000000, 74.256068
3673.800000, 74.156750
3674.600000, 74.048332
3675.410000, 73.936115
3676.210000, 73.819697
3677.010000, 73.697079
3677.820000, 73.571461
3678.620000, 73.439244
3679.420000, 73.301926
3680.230000, 73.161308
3681.030000, 73.013990
3681.830000, 72.864272
3682.640000, 72.710055
3683.440000, 72.550137
3684.250000, 72.387519
3685.050000, 72.218601
3685.850000, 72.047284
3686.660000, 71.873166
3687.460000, 71.695148
3688.260000, 71.515430
3689.070000, 71.332412
3689.870000, 71.147295
3690.670000, 70.960677
3691.480000, 70.769559
3692.280000, 70.576441
3693.080000, 70.379224
3693.890000, 70.179606
3694.690000, 69.978688
3695.490000, 69.777770
3696.300000, 69.576853
3697.100000, 69.375835
3697.910000, 69.173217
3698.710000, 68.970099
3699.510000, 68.766181
3700.320000, 68.563364
3701.120000, 68.361746
3701.920000, 68.162228
3702.730000, 67.963410
3703.530000, 67.765693
3704.330000, 67.568975
3705.140000, 67.373157
3705.940000, 67.180439
3706.740000, 66.989021
3707.550000, 66.800504
3708.350000, 66.614086
3709.150000, 66.428968
3709.960000, 66.247550
3710.760000, 66.068133
3711.570000, 65.892515
3712.370000, 65.720397
3713.170000, 65.550179
3713.980000, 65.383562
3714.780000, 65.218844
3715.580000, 65.057726
3716.390000, 64.902108
3717.190000, 64.749490
3717.990000, 64.603573
3718.800000, 64.459755
3719.600000, 64.319437
3720.400000, 64.184619
3721.210000, 64.052702
3722.010000, 63.930584
3722.820000, 63.811466
3723.620000, 63.697248
3724.420000, 63.585931
3725.230000, 63.476113
3726.030000, 63.371695
3726.830000, 63.271477
3727.640000, 63.177859
3728.440000, 63.092242
3729.240000, 63.010424
3730.050000, 62.936506
3730.850000, 62.865188
3731.650000, 62.798271
3732.460000, 62.736553
3733.260000, 62.677235
3734.060000, 62.625417
3734.870000, 62.576699
3735.670000, 62.533682
3736.480000, 62.497364
3737.280000, 62.464246
3738.080000, 62.440928
3738.890000, 62.420611
3739.690000, 62.406193
3740.490000, 62.396475
3741.300000, 62.389257
3742.100000, 62.389140
3742.900000, 62.391822
3743.710000, 62.400904
3744.510000, 62.414986
3745.310000, 62.432268
3746.120000, 62.455451
3746.920000, 62.480933
3747.720000, 62.511915
3748.530000, 62.546997
3749.330000, 62.585380
3750.140000, 62.628762
3750.940000, 62.673944
3751.740000, 62.723726
3752.550000, 62.776908
3753.350000, 62.833491
3754.150000, 62.895473
3754.960000, 62.959255
3755.760000, 63.027537
3756.560000, 63.097520
3757.370000, 63.170002
3758.170000, 63.245884
3758.970000, 63.323266
3759.780000, 63.405149
3760.580000, 63.487831
3761.390000, 63.572113
3762.190000, 63.657595
3762.990000, 63.743677
3763.800000, 63.834060
3764.600000, 63.925542
3765.400000, 64.019924
3766.210000, 64.114506
3767.010000, 64.209389
3767.810000, 64.304571
3768.620000, 64.400153
3769.420000, 64.497435
3770.220000, 64.595218
3771.030000, 64.693400
3771.830000, 64.790282
3772.630000, 64.886564
3773.440000, 64.979146
3774.240000, 65.070929
3775.050000, 65.160911
3775.850000, 65.250493
3776.650000, 65.339575
3777.460000, 65.426858
3778.260000, 65.513140
3779.060000, 65.595722
3779.870000, 65.676304
3780.670000, 65.754686
3781.470000, 65.830669
3782.280000, 65.905651
3783.080000, 65.976733
3783.880000, 66.045915
3784.690000, 66.110998
3785.490000, 66.172180
3786.300000, 66.230862
3787.100000, 66.284744
3787.900000, 66.337027
3788.710000, 66.384709
3789.510000, 66.428891
3790.310000, 66.468573
3791.120000, 66.502055
3791.920000, 66.532938
3792.720000, 66.556520
3793.530000, 66.578502
3794.330000, 66.596184
3795.130000, 66.610467
3795.940000, 66.621849
3796.740000, 66.627031
3797.540000, 66.630113
3798.350000, 66.625195
3799.150000, 66.617578
3799.960000, 66.604460
3800.760000, 66.586842
3801.560000, 66.566324
3802.370000, 66.538207
3803.170000, 66.507789
3803.970000, 66.469271
3804.780000, 66.427253
3805.580000, 66.380236
3806.380000, 66.328918
3807.190000, 66.275500
3807.990000, 66.218100
3808.790000, 66.159100
3809.600000, 66.094600
3810.400000, 66.026700
3811.200000, 65.954700
3812.010000, 65.878700
3812.810000, 65.801100
3813.620000, 65.719600
3814.420000, 65.637100
3815.220000, 65.551200
3816.030000, 65.462900
3816.830000, 65.372100
3817.630000, 65.278400
3818.440000, 65.183500
3819.240000, 65.085200
3820.040000, 64.985800
3820.850000, 64.883200
3821.650000, 64.778500
3822.450000, 64.671300
3823.260000, 64.561900
3824.060000, 64.451700
3824.870000, 64.341300
3825.670000, 64.231200
3826.470000, 64.122000
3827.280000, 64.012900
3828.080000, 63.903800
3828.880000, 63.793500
3829.690000, 63.682800
3830.490000, 63.570100
3831.290000, 63.457300
3832.100000, 63.344000
3832.900000, 63.231400
3833.700000, 63.119700
3834.510000, 63.010400
3835.310000, 62.902500
3836.110000, 62.798000
3836.920000, 62.694400
3837.720000, 62.593600
3838.530000, 62.493800
3839.330000, 62.395700
3840.130000, 62.298800
3840.940000, 62.202800
3841.740000, 62.108600
3842.540000, 62.015000
3843.350000, 61.925200
3844.150000, 61.836900
3844.950000, 61.752500
3845.760000, 61.670800
3846.560000, 61.591900
3847.360000, 61.515700
3848.170000, 61.440600
3848.970000, 61.367900
3849.770000, 61.296000
3850.580000, 61.226900
3851.380000, 61.160200
3852.190000, 61.097300
3852.990000, 61.039300
3853.790000, 60.984600
3854.600000, 60.936400
3855.400000, 60.889900
3856.200000, 60.850000
3857.010000, 60.811800
3857.810000, 60.778600
3858.610000, 60.748500
3859.420000, 60.721700
3860.220000, 60.698300
3861.020000, 60.676500
3861.830000, 60.659700
3862.630000, 60.644100
3863.440000, 60.635100
3864.240000, 60.628300
3865.040000, 60.626300
3865.850000, 60.627100
3866.650000, 60.630600
3867.450000, 60.637300
3868.260000, 60.645300
3869.060000, 60.657900
3869.860000, 60.671900
3870.670000, 60.691700
3871.470000, 60.714200
3872.270000, 60.741800
3873.080000, 60.773000
3873.880000, 60.807100
3874.680000, 60.845300
3875.490000, 60.884800
3876.290000, 60.929600
3877.100000, 60.975300
3877.900000, 61.025100
3878.700000, 61.076500
3879.510000, 61.130800
3880.310000, 61.187800
3881.110000, 61.247200
3881.920000, 61.310600
3882.720000, 61.375500
3883.520000, 61.445600
3884.330000, 61.516700
3885.130000, 61.592600
3885.930000, 61.669500
3886.740000, 61.748800
3887.540000, 61.828500
3888.350000, 61.908600
3889.150000, 61.989300
3889.950000, 62.070300
3890.760000, 62.154000
3891.560000, 62.238200
3892.360000, 62.326400
3893.170000, 62.415000
3893.970000, 62.505100
3894.770000, 62.595000
3895.580000, 62.684800
3896.380000, 62.774700
3897.180000, 62.864700
3897.990000, 62.956100
3898.790000, 63.047900
3899.590000, 63.140400
3900.400000, 63.232600
3901.200000, 63.323200
3902.010000, 63.413300
3902.810000, 63.502300
3903.610000, 63.591300
3904.420000, 63.680100
3905.220000, 63.767800
3906.020000, 63.854700
3906.830000, 63.937900
3907.630000, 64.020200
3908.430000, 64.098600
3909.240000, 64.176700
3910.040000, 64.253100
3910.840000, 64.328700
3911.650000, 64.402600
3912.450000, 64.473900
3913.250000, 64.542300
3914.060000, 64.606900
3914.860000, 64.669100
3915.670000, 64.728000
3916.470000, 64.786000
3917.270000, 64.839800
3918.080000, 64.892600
3918.880000, 64.938800
3919.680000, 64.982900
3920.490000, 65.021000
3921.290000, 65.056500
3922.090000, 65.088500
3922.900000, 65.116900
3923.700000, 65.142800
3924.500000, 65.162700
3925.310000, 65.180300
3926.110000, 65.190200
3926.920000, 65.198800
3927.720000, 65.200300
3928.520000, 65.200700
3929.330000, 65.196300
3930.130000, 65.189700
3930.930000, 65.178300
3931.740000, 65.163000
3932.540000, 65.143100
3933.340000, 65.118100
3934.150000, 65.089800
3934.950000, 65.055400
3935.750000, 65.019200
3936.560000, 64.975500
3937.360000, 64.930700
3938.160000, 64.878700
3938.970000, 64.825700
3939.770000, 64.768100
3940.580000, 64.708600
3941.380000, 64.645300
3942.180000, 64.578900
3942.990000, 64.508700
3943.790000, 64.434300
3944.590000, 64.357000
3945.400000, 64.274500
3946.200000, 64.189900
3947.000000, 64.099700
3947.810000, 64.008500
3948.610000, 63.912200
3949.410000, 63.815300
3950.220000, 63.714800
3951.020000, 63.613400
3951.820000, 63.509000
3952.630000, 63.403300
3953.430000, 63.295200
3954.240000, 63.184900
3955.040000, 63.072400
3955.840000, 62.956800
3956.650000, 62.839300
3957.450000, 62.718700
3958.250000, 62.596900
3959.060000, 62.472900
3959.860000, 62.348400
3960.660000, 62.223300
3961.470000, 62.098300
3962.270000, 61.973800
3963.070000, 61.849400
3963.880000, 61.725400
3964.680000, 61.601300
3965.490000, 61.477100
3966.290000, 61.352600
3967.090000, 61.227500
3967.900000, 61.101600
3968.700000, 60.974900
3969.500000, 60.847800
3970.310000, 60.720600
3971.110000, 60.594700
3971.910000, 60.469400
3972.720000, 60.346100
3973.520000, 60.223200
3974.320000, 60.100800
3975.130000, 59.978500
3975.930000, 59.856800
3976.730000, 59.735800
3977.540000, 59.617500
3978.340000, 59.500500
3979.150000, 59.386500
3979.950000, 59.273900
3980.750000, 59.163300
3981.560000, 59.054400
3982.360000, 58.947200
3983.160000, 58.842100
3983.970000, 58.738600
3984.770000, 58.637700
3985.570000, 58.537800
3986.380000, 58.440800
3987.180000, 58.344600
3987.980000, 58.251300
3988.790000, 58.158300
3989.590000, 58.067800
3990.390000, 57.977500
3991.200000, 57.890600
3992.000000, 57.804600
3992.810000, 57.724100
3993.610000, 57.645300
3994.410000, 57.572300
3995.220000, 57.501100
3996.020000, 57.433700
3996.820000, 57.368000
3997.630000, 57.304700
3998.430000, 57.243000
3999.230000, 57.183100
4000.040000, 57.125100
4000.840000, 57.068700
4001.640000, 57.014800
4002.450000, 56.962400
4003.250000, 56.913600
4004.060000, 56.866300
4004.860000, 56.823400
4005.660000, 56.781700
4006.470000, 56.744100
4007.270000, 56.707200
4008.070000, 56.673300
4008.880000, 56.639700
4009.680000, 56.609900
4010.480000, 56.580600
4011.290000, 56.557200
4012.090000, 56.534800
4012.890000, 56.517700
4013.700000, 56.501300
4014.500000, 56.486900
4015.300000, 56.472600
4016.110000, 56.458600
4016.910000, 56.445400
4017.720000, 56.433700
4018.520000, 56.423500
4019.320000, 56.415500
4020.130000, 56.408800
4020.930000, 56.403500
4021.730000, 56.399300
4022.540000, 56.396000
4023.340000, 56.394200
4024.140000, 56.393200
4024.950000, 56.394100
4025.750000, 56.395800
4026.550000, 56.399000
4027.360000, 56.402800
4028.160000, 56.407500
4028.970000, 56.412500
4029.770000, 56.418100
4030.570000, 56.423900
4031.380000, 56.429800
4032.180000, 56.435700
4032.980000, 56.442100
4033.790000, 56.448500
4034.590000, 56.455200
4035.390000, 56.461900
4036.200000, 56.468000
4037.000000, 56.474100
4037.800000, 56.479000
4038.610000, 56.483800
4039.410000, 56.487400
4040.210000, 56.490700
4041.020000, 56.492300
4041.820000, 56.493300
4042.630000, 56.491800
4043.430000, 56.489500
4044.230000, 56.484100
4045.040000, 56.477700
4045.840000, 56.468300
4046.640000, 56.457900
4047.450000, 56.445600
4048.250000, 56.432500
4049.050000, 56.417800
4049.860000, 56.401900
4050.660000, 56.384000
4051.460000, 56.364600
4052.270000, 56.342700
4053.070000, 56.318700
4053.870000, 56.291800
4054.680000, 56.262100
4055.480000, 56.229000
4056.290000, 56.193100
4057.090000, 56.154100
4057.890000, 56.112400
4058.700000, 56.068000
4059.500000, 56.020100
4060.300000, 55.969300
4061.110000, 55.914500
4061.910000, 55.856600
4062.710000, 55.795200
4063.520000, 55.731200
4064.320000, 55.664200
4065.120000, 55.595100
4065.930000, 55.522700
4066.730000, 55.448200
4067.540000, 55.369300
4068.340000, 55.288000
4069.140000, 55.201500
4069.950000, 55.112200
4070.750000, 55.018200
4071.550000, 54.921700
4072.360000, 54.821400
4073.160000, 54.719200
4073.960000, 54.613500
4074.770000, 54.506100
4075.570000, 54.394600
4076.370000, 54.281100
4077.180000, 54.162900
4077.980000, 54.042500
4078.780000, 53.917500
4079.590000, 53.790500
4080.390000, 53.660400
4081.200000, 53.528900
4082.000000, 53.394900
4082.800000, 53.259900
4083.610000, 53.121400
4084.410000, 52.981500
4085.210000, 52.837200
4086.020000, 52.691000
4086.820000, 52.540900
4087.620000, 52.389000
4088.430000, 52.234100
4089.230000, 52.077900
4090.030000, 51.919800
4090.840000, 51.760700
4091.640000, 51.599900
4092.440000, 51.438200
4093.250000, 51.274100
4094.050000, 51.108700
4094.860000, 50.940800
4095.660000, 50.771700
4096.460000, 50.601300
4097.270000, 50.430300
4098.070000, 50.259000
4098.870000, 50.087700
4099.680000, 49.916100
4100.480000, 49.744300
4101.280000, 49.571900
4102.090000, 49.399100
4102.890000, 49.225800
4103.690000, 49.052100
4104.500000, 48.878700
4105.300000, 48.705400
4106.110000, 48.533100
4106.910000, 48.361800
4107.710000, 48.191400
4108.520000, 48.021900
4109.320000, 47.852700
4110.120000, 47.683900
4110.930000, 47.515300
4111.730000, 47.346900
4112.530000, 47.179000
4113.340000, 47.011800
4114.140000, 46.845200
4114.940000, 46.679700
4115.750000, 46.515200
4116.550000, 46.352500
4117.350000, 46.191200
4118.160000, 46.032500
4118.960000, 45.875200
4119.770000, 45.720800
4120.570000, 45.567200
4121.370000, 45.415800
4122.180000, 45.265000
4122.980000, 45.115700
4123.780000, 44.967200
4124.590000, 44.821900
4125.390000, 44.677500
4126.190000, 44.538500
4127.000000, 44.400300
4127.800000, 44.267500
4128.600000, 44.135000
4129.410000, 44.006300
4130.210000, 43.877800
4131.020000, 43.752800
4131.820000, 43.628000
4132.620000, 43.508100
4133.430000, 43.388400
4134.230000, 43.273900
4135.030000, 43.160000
4135.840000, 43.050100
4136.640000, 42.940800
4137.440000, 42.834900
4138.250000, 42.729800
4139.050000, 42.628600
4139.850000, 42.528700
4140.660000, 42.433000
4141.460000, 42.339100
4142.260000, 42.249300
4143.070000, 42.161600
4143.870000, 42.077500
4144.680000, 41.995800
4145.480000, 41.916900
4146.280000, 41.840600
4147.090000, 41.766500
4147.890000, 41.695000
4148.690000, 41.625400
4149.500000, 41.558900
4150.300000, 41.494300
4151.100000, 41.433500
4151.910000, 41.374400
4152.710000, 41.319800
4153.510000, 41.266100
4154.320000, 41.216500
4155.120000, 41.167500
4155.920000, 41.122600
4156.730000, 41.078000
4157.530000, 41.038800
4158.340000, 40.999700
4159.140000, 40.966300
4159.940000, 40.933100
4160.750000, 40.903600
4161.550000, 40.874400
4162.350000, 40.847600
4163.160000, 40.821400
4163.960000, 40.798300
4164.760000, 40.776300
4165.570000, 40.758500
4166.370000, 40.742700
4167.170000, 40.730500
4167.980000, 40.720900
4168.780000, 40.713600
4169.590000, 40.708500
4170.390000, 40.704400
4171.190000, 40.701500
4172.000000, 40.699100
4172.800000, 40.697500
4173.600000, 40.696200
4174.410000, 40.696300
4175.210000, 40.696800
4176.010000, 40.700300
4176.820000, 40.704100
4177.620000, 40.712500
4178.420000, 40.720900
4179.230000, 40.733300
4180.030000, 40.745800
4180.830000, 40.760200
4181.640000, 40.774900
4182.440000, 40.791600
4183.250000, 40.809000
4184.050000, 40.829600
4184.850000, 40.851900
4185.660000, 40.878200
4186.460000, 40.907500
4187.260000, 40.940700
4188.070000, 40.978600
4188.870000, 41.020300
4189.670000, 41.069200
4190.480000, 41.121600
4191.280000, 41.184700
4192.080000, 41.250100
4192.890000, 41.329800
4193.690000, 41.410100
4194.490000, 41.507400
4195.300000, 41.604700
4196.100000, 41.716900
4196.910000, 41.830200
4197.710000, 41.953600
4198.510000, 42.079400
4199.320000, 42.210600
4200.120000, 42.344300
4200.920000, 42.480800
4201.730000, 42.619200
4202.530000, 42.759100
4203.330000, 42.900500
4204.140000, 43.042900
4204.940000, 43.187300
4205.740000, 43.333200
4206.550000, 43.484400
4207.350000, 43.636700
4208.160000, 43.799500
4208.960000, 43.962200
4209.760000, 44.136900
4210.570000, 44.311900
4211.370000, 44.495000
4212.170000, 44.679500
4212.980000, 44.868400
4213.780000, 45.059000
4214.580000, 45.250500
4215.390000, 45.442600
4216.190000, 45.633000
4216.990000, 45.821400
4217.800000, 46.008500
4218.600000, 46.192800
4219.400000, 46.376500
4220.210000, 46.557600
4221.010000, 46.738200
4221.820000, 46.909700
4222.620000, 47.081000
4223.420000, 47.233900
4224.230000, 47.384900
4225.030000, 47.516400
4225.830000, 47.642100
4226.640000, 47.750600
4227.440000, 47.848900
4228.240000, 47.929100
4229.050000, 47.989900
4229.850000, 48.032700
4230.650000, 48.039900
4231.460000, 48.037300
4232.260000, 47.992400
4233.060000, 47.946700
4233.870000, 47.878900
4234.670000, 47.811200
4235.480000, 47.725700
4236.280000, 47.637900
4237.080000, 47.507100
4237.890000, 47.360900
4238.690000, 47.178500
4239.490000, 46.969900
4240.300000, 46.743400
4241.100000, 46.492400
4241.900000, 46.223800
4242.710000, 45.906800
4243.510000, 45.581100
4244.310000, 45.181500
4245.120000, 44.782000
4245.920000, 44.352300
4246.730000, 43.921100
4247.530000, 43.503300
4248.330000, 43.089500
4249.140000, 42.676000
4249.940000, 42.262600
4250.740000, 41.837500
4251.550000, 41.397800
4252.350000, 40.953600
4253.150000, 40.497400
4253.960000, 40.045800
4254.760000, 39.630200
4255.560000, 39.214800
4256.370000, 38.914800
4257.170000, 38.622500
4257.970000, 38.455200
4258.780000, 38.326400
4259.580000, 38.275000
4260.390000, 38.277600
4261.190000, 38.295900
4261.990000, 38.336900
4262.800000, 38.366000
4263.600000, 38.355600
4264.400000, 38.341300
4265.210000, 38.251800
4266.010000, 38.162300
4266.810000, 38.014400
4267.620000, 37.857700
4268.420000, 37.667300
4269.220000, 37.461300
4270.030000, 37.234700
4270.830000, 36.987400
4271.640000, 36.729300
4272.440000, 36.446800
4273.240000, 36.163600
4274.050000, 35.874800
4274.850000, 35.586200
4275.650000, 35.335200
4276.460000, 35.087300
4277.260000, 34.873400
4278.060000, 34.671900
4278.870000, 34.469800
4279.670000, 34.267100
4280.470000, 34.057400
4281.280000, 33.834000
4282.080000, 33.612100
4282.880000, 33.399400
4283.690000, 33.186800
4284.490000, 32.994900
4285.300000, 32.804500
4286.100000, 32.617100
4286.900000, 32.430800
4287.710000, 32.239200
4288.510000, 32.042800
4289.310000, 31.842200
4290.120000, 31.632400
4290.920000, 31.421900
4291.720000, 31.204300
4292.530000, 30.986800
4293.330000, 30.767800
4294.130000, 30.548700
4294.940000, 30.327100
4295.740000, 30.104500
4296.540000, 29.879600
4297.350000, 29.652100
4298.150000, 29.425600
4298.960000, 29.201500
4299.760000, 28.977900
4300.560000, 28.763600
4301.370000, 28.549400
4302.170000, 28.339000
4302.970000, 28.129500
4303.780000, 27.920400
4304.580000, 27.711700
4305.380000, 27.503900
4306.190000, 27.297400
4306.990000, 27.090300
4307.790000, 26.880100
4308.600000, 26.669900
4309.400000, 26.451200
4310.210000, 26.231900
4311.010000, 26.011600
4311.810000, 25.790900
4312.620000, 25.575700
4313.420000, 25.366600
4314.220000, 25.161300
4315.030000, 24.968100
4315.830000, 24.775000
4316.630000, 24.595100
4317.440000, 24.415200
4318.240000, 24.246800
4319.040000, 24.081900
4319.850000, 23.925800
4320.650000, 23.777700
4321.450000, 23.632900
4322.260000, 23.495900
4323.060000, 23.359100
4323.870000, 23.225100
4324.670000, 23.091200
4325.470000, 22.954500
4326.280000, 22.817200
4327.080000, 22.677400
4327.880000, 22.535500
4328.690000, 22.393700
4329.490000, 22.252200
4330.290000, 22.111000
4331.100000, 21.974000
4331.900000, 21.837100
4332.700000, 21.703200
4333.510000, 21.569900
4334.310000, 21.436600
4335.110000, 21.303500
4335.920000, 21.170900
4336.720000, 21.039600
4337.530000, 20.908700
4338.330000, 20.786900
4339.130000, 20.665100
4339.940000, 20.553800
4340.740000, 20.445300
4341.540000, 20.341700
4342.350000, 20.242500
4343.150000, 20.144300
4343.950000, 20.049300
4344.760000, 19.954300
4345.560000, 19.860300
4346.360000, 19.766300
4347.170000, 19.671900
4347.970000, 19.577300
4348.780000, 19.483600
4349.580000, 19.390900
4350.380000, 19.299300
4351.190000, 19.211700
4351.990000, 19.124200
4352.790000, 19.040600
4353.600000, 18.957200
4354.400000, 18.874900
4355.200000, 18.793200
4356.010000, 18.712200
4356.810000, 18.632300
4357.610000, 18.552800
4358.420000, 18.475800
4359.220000, 18.398700
4360.020000, 18.323200
4360.830000, 18.248000
4361.630000, 18.173800
4362.440000, 18.100400
4363.240000, 18.027900
4364.040000, 17.957700
4364.850000, 17.887500
4365.650000, 17.820100
4366.450000, 17.752900
4367.260000, 17.687000
4368.060000, 17.621800
4368.860000, 17.557100
4369.670000, 17.493300
4370.470000, 17.429600
4371.270000, 17.366600
4372.080000, 17.303700
4372.880000, 17.241700
4373.690000, 17.179900
4374.490000, 17.119400
4375.290000, 17.060200
4376.100000, 17.001800
4376.900000, 16.946400
4377.700000, 16.891100
4378.510000, 16.839900
4379.310000, 16.789200
4380.110000, 16.741100
4380.920000, 16.694700
4381.720000, 16.649200
4382.520000, 16.605900
4383.330000, 16.562600
4384.130000, 16.521500
4384.930000, 16.480500
4385.740000, 16.440300
4386.540000, 16.400500
4387.350000, 16.360500
4388.150000, 16.320300
4388.950000, 16.280100
4389.760000, 16.239200
4390.560000, 16.198400
4391.360000, 16.158100
4392.170000, 16.118000
4392.970000, 16.078500
4393.770000, 16.040000
4394.580000, 16.001600
4395.380000, 15.964500
4396.180000, 15.927400
4396.990000, 15.891700
4397.790000, 15.856300
4398.590000, 15.822000
4399.400000, 15.788600
4400.200000, 15.755500
4401.010000, 15.723300
4401.810000, 15.691100
4402.610000, 15.659000
4403.420000, 15.626800
4404.220000, 15.594600
4405.020000, 15.562600
4405.830000, 15.530700
4406.630000, 15.499900
4407.430000, 15.469100
4408.240000, 15.440100
4409.040000, 15.411400
4409.840000, 15.383500
4410.650000, 15.356200
4411.450000, 15.329000
4412.260000, 15.301700
4413.060000, 15.274400
4413.860000, 15.246800
4414.670000, 15.219000
4415.470000, 15.192100
4416.270000, 15.165800
4417.080000, 15.140000
4417.880000, 15.116800
4418.680000, 15.093600
4419.490000, 15.072500
4420.290000, 15.051900
4421.090000, 15.032000
4421.900000, 15.013000
4422.700000, 14.994200
4423.500000, 14.976300
4424.310000, 14.958500
4425.110000, 14.941100
4425.920000, 14.923900
4426.720000, 14.906700
4427.520000, 14.889600
4428.330000, 14.872600
4429.130000, 14.856700
4429.930000, 14.840700
4430.740000, 14.827000
4431.540000, 14.814000
4432.340000, 14.802200
4433.150000, 14.792400
4433.950000, 14.782600
4434.750000, 14.775000
4435.560000, 14.767300
4436.360000, 14.761500
4437.160000, 14.756600
4437.970000, 14.752800
4438.770000, 14.751400
4439.580000, 14.749900
4440.380000, 14.750400
4441.180000, 14.751100
4441.990000, 14.752500
4442.790000, 14.754500
4443.590000, 14.756900
4444.400000, 14.761200
4445.200000, 14.765400
4446.000000, 14.771700
4446.810000, 14.778400
4447.610000, 14.786000
4448.410000, 14.794600
4449.220000, 14.803400
4450.020000, 14.814100
4450.830000, 14.824800
4451.630000, 14.837500
4452.430000, 14.851100
4453.240000, 14.865700
4454.040000, 14.882300
4454.840000, 14.899000
4455.650000, 14.917700
4456.450000, 14.936400
4457.250000, 14.955800
4458.060000, 14.975700
4458.860000, 14.995800
4459.660000, 15.017100
4460.470000, 15.038300
4461.270000, 15.062100
4462.070000, 15.086400
4462.880000, 15.112500
4463.680000, 15.141000
4464.490000, 15.169700
4465.290000, 15.201900
4466.090000, 15.234100
4466.900000, 15.267400
4467.700000, 15.301500
4468.500000, 15.335800
4469.310000, 15.370900
4470.110000, 15.405900
4470.910000, 15.443000
4471.720000, 15.480400
4472.520000, 15.519500
4473.320000, 15.560600
4474.130000, 15.601800
4474.930000, 15.646200
4475.730000, 15.690600
4476.540000, 15.736100
4477.340000, 15.782300
4478.150000, 15.828700
4478.950000, 15.876000
4479.750000, 15.923200
4480.560000, 15.971900
4481.360000, 16.020800
4482.160000, 16.070800
4482.970000, 16.122100
4483.770000, 16.173500
4484.570000, 16.227500
4485.380000, 16.281400
4486.180000, 16.336900
4486.980000, 16.393500
4487.790000, 16.450500
4488.590000, 16.509400
4489.400000, 16.568400
4490.200000, 16.628700
4491.000000, 16.689500
4491.810000, 16.750700
4492.610000, 16.812800
4493.410000, 16.874800
4494.220000, 16.938100
4495.020000, 17.001400
4495.820000, 17.065800
4496.630000, 17.131100
4497.430000, 17.196600
4498.230000, 17.263700
4499.040000, 17.330900
4499.840000, 17.398700
4500.640000, 17.466900
4501.450000, 17.535300
4502.250000, 17.604600
4503.060000, 17.673900
4503.860000, 17.744500
4504.660000, 17.815500
4505.470000, 17.886900
4506.270000, 17.959300
4507.070000, 18.031600
4507.880000, 18.104100
4508.680000, 18.176600
4509.480000, 18.249000
4510.290000, 18.321200
4511.090000, 18.393500
4511.890000, 18.466600
4512.700000, 18.539600
4513.500000, 18.613600
4514.310000, 18.688100
4515.110000, 18.762500
4515.910000, 18.836900
4516.720000, 18.911300
4517.520000, 18.985000
4518.320000, 19.058400
4519.130000, 19.131700
4519.930000, 19.204700
4520.730000, 19.277700
4521.540000, 19.350800
4522.340000, 19.423900
4523.140000, 19.496700
4523.950000, 19.568900
4524.750000, 19.641200
4525.550000, 19.712000
4526.360000, 19.782700
4527.160000, 19.852800
4527.970000, 19.922200
4528.770000, 19.991500
4529.570000, 20.060000
4530.380000, 20.128500
4531.180000, 20.196000
4531.980000, 20.262800
4532.790000, 20.329400
4533.590000, 20.393400
4534.390000, 20.457400
4535.200000, 20.520400
4536.000000, 20.582600
4536.800000, 20.644800
4537.610000, 20.706300
4538.410000, 20.767800
4539.210000, 20.828300
4540.020000, 20.888100
4540.820000, 20.947500
4541.630000, 21.004700
4542.430000, 21.061800
4543.230000, 21.116600
4544.040000, 21.170400
4544.840000, 21.223100
4545.640000, 21.272000
4546.450000, 21.320900
4547.250000, 21.366400
4548.050000, 21.410600
4548.860000, 21.454100
4549.660000, 21.495400
4550.460000, 21.536700
4551.270000, 21.576000
4552.070000, 21.614700
4552.880000, 21.652300
4553.680000, 21.687200
4554.480000, 21.722000
4555.290000, 21.753500
4556.090000, 21.784100
4556.890000, 21.813600
4557.700000, 21.840700
4558.500000, 21.867800
4559.300000, 21.891900
4560.110000, 21.915400
4560.910000, 21.937300
4561.710000, 21.956100
4562.520000, 21.974900
4563.320000, 21.989700
4564.120000, 22.003700
4564.930000, 22.016200
4565.730000, 22.025500
4566.540000, 22.034900
4567.340000, 22.040300
4568.140000, 22.044800
4568.950000, 22.047700
4569.750000, 22.047200
4570.550000, 22.046700
4571.360000, 22.042700
4572.160000, 22.037900
4572.960000, 22.032100
4573.770000, 22.023900
4574.570000, 22.015700
4575.370000, 22.004300
4576.180000, 21.992000
4576.980000, 21.978100
4577.780000, 21.960200
4578.590000, 21.942300
4579.390000, 21.920800
4580.200000, 21.898200
4581.000000, 21.875000
4581.800000, 21.849800
4582.610000, 21.824600
4583.410000, 21.797200
4584.210000, 21.769100
4585.020000, 21.739900
4585.820000, 21.706700
4586.620000, 21.673500
4587.430000, 21.636600
4588.230000, 21.598000
4589.030000, 21.558800
4589.840000, 21.516200
4590.640000, 21.473700
4591.450000, 21.429300
4592.250000, 21.383900
4593.050000, 21.338200
4593.860000, 21.289900
4594.660000, 21.241600
4595.460000, 21.191200
4596.270000, 21.139400
4597.070000, 21.087400
4597.870000, 21.032100
4598.680000, 20.976900
4599.480000, 20.920200
4600.280000, 20.862300
4601.090000, 20.804300
4601.890000, 20.743800
4602.690000, 20.683200
4603.500000, 20.621400
4604.300000, 20.557700
4605.110000, 20.494100
4605.910000, 20.428600
4606.710000, 20.362900
4607.520000, 20.296800
4608.320000, 20.230000
4609.120000, 20.163300
4609.930000, 20.095500
4610.730000, 20.027500
4611.530000, 19.959000
4612.340000, 19.888600
4613.140000, 19.818300
4613.940000, 19.746400
4614.750000, 19.673800
4615.550000, 19.600900
4616.360000, 19.526500
4617.160000, 19.452100
4617.960000, 19.377200
4618.770000, 19.301800
4619.570000, 19.226500
4620.370000, 19.150200
4621.180000, 19.074000
4621.980000, 18.997300
4622.780000, 18.919900
4623.590000, 18.842400
4624.390000, 18.763600
4625.190000, 18.684600
4626.000000, 18.605300
4626.800000, 18.524900
4627.600000, 18.444600
4628.410000, 18.364100
4629.210000, 18.283500
4630.020000, 18.202900
4630.820000, 18.122700
4631.620000, 18.042600
4632.430000, 17.962300
4633.230000, 17.881800
4634.030000, 17.801500
4634.840000, 17.720500
4635.640000, 17.639500
4636.440000, 17.558700
4637.250000, 17.478000
4638.050000, 17.397400
4638.850000, 17.317300
4639.660000, 17.237400
4640.460000, 17.157400
4641.260000, 17.077400
4642.070000, 16.997400
4642.870000, 16.917400
4643.680000, 16.837500
4644.480000, 16.757600
4645.280000, 16.677800
4646.090000, 16.598000
4646.890000, 16.518100
4647.690000, 16.437800
4648.500000, 16.357600
4649.300000, 16.276700
4650.100000, 16.195800
4650.910000, 16.114700
4651.710000, 16.033300
4652.510000, 15.952000
4653.320000, 15.870400
4654.120000, 15.788900
4654.930000, 15.707300
4655.730000, 15.625900
4656.530000, 15.544500
4657.340000, 15.463300
4658.140000, 15.382200
4658.940000, 15.301200
4659.750000, 15.220300
4660.550000, 15.139400
4661.350000, 15.058500
4662.160000, 14.977400
4662.960000, 14.896400
4663.760000, 14.815200
4664.570000, 14.734000
4665.370000, 14.652800
4666.170000, 14.572000
4666.980000, 14.491200
4667.780000, 14.410800
4668.590000, 14.330800
4669.390000, 14.250900
4670.190000, 14.171100
4671.000000, 14.091400
4671.800000, 14.011500
4672.600000, 13.931200
4673.410000, 13.850800
4674.210000, 13.769900
4675.010000, 13.688600
4675.820000, 13.607400
4676.620000, 13.525200
4677.420000, 13.443100
4678.230000, 13.360400
4679.030000, 13.276900
4679.830000, 13.193400
4680.640000, 13.108900
4681.440000, 13.024000
4682.250000, 12.939300
4683.050000, 12.854600
4683.850000, 12.770000
4684.660000, 12.685900
4685.460000, 12.602100
4686.260000, 12.518400
4687.070000, 12.434400
4687.870000, 12.350300
4688.670000, 12.265700
4689.480000, 12.179700
4690.280000, 12.093600
4691.080000, 12.006100
4691.890000, 11.917500
4692.690000, 11.828900
4693.500000, 11.738800
4694.300000, 11.648700
4695.100000, 11.558600
4695.910000, 11.468500
4696.710000, 11.378500
4697.510000, 11.288700
4698.320000, 11.199000
4699.120000, 11.109300
4699.920000, 11.018100
4700.730000, 10.926900
4701.530000, 10.834700
4702.330000, 10.740500
4703.140000, 10.646400
4703.940000, 10.550300
4704.740000, 10.453500
4705.550000, 10.356600
4706.350000, 10.258000
4707.160000, 10.159400
4707.960000, 10.060400
4708.760000, 9.960700
4709.570000, 9.861080
4710.370000, 9.761070
4711.170000, 9.660930
4711.980000, 9.560770
4712.780000, 9.459800
4713.580000, 9.358870
4714.390000, 9.257120
4715.190000, 9.154180
4715.990000, 9.051270
4716.800000, 8.946320
4717.600000, 8.840680
4718.410000, 8.734920
4719.210000, 8.627250
4720.010000, 8.519620
4720.820000, 8.411760
4721.620000, 8.303530
4722.420000, 8.195340
4723.230000, 8.087240
4724.030000, 7.979210
4724.830000, 7.871200
4725.640000, 7.762880
4726.440000, 7.654590
4727.240000, 7.545900
4728.050000, 7.436460
4728.850000, 7.327070
4729.650000, 7.216710
4730.460000, 7.105920
4731.260000, 6.995160
4732.070000, 6.883490
4732.870000, 6.771860
4733.670000, 6.660300
4734.480000, 6.548880
4735.280000, 6.437510
4736.080000, 6.326750
4736.890000, 6.216390
4737.690000, 6.106070
4738.490000, 5.996220
4739.300000, 5.886440
4740.100000, 5.776590
4740.900000, 5.666410
4741.710000, 5.556270
4742.510000, 5.445950
4743.310000, 5.335460
4744.120000, 5.225020
4744.920000, 5.115520
4745.730000, 5.006250
4746.530000, 4.897410
4747.330000, 4.791210
4748.140000, 4.685040
4748.940000, 4.580320
4749.740000, 4.477500
4750.550000, 4.374710
4751.350000, 4.273350
4752.150000, 4.172570
4752.960000, 4.071820
4753.760000, 3.972100
4754.560000, 3.872400
4755.370000, 3.773200
4756.170000, 3.675110
4756.980000, 3.577060
4757.780000, 3.480700
4758.580000, 3.385560
4759.390000, 3.290440
4760.190000, 3.198800
4760.990000, 3.107700
4761.800000, 3.017300
4762.600000, 2.930760
4763.400000, 2.844240
4764.210000, 2.759430
4765.010000, 2.676900
4765.810000, 2.594400
4766.620000, 2.513850
4767.420000, 2.434130
4768.220000, 2.354440
4769.030000, 2.277300
4769.830000, 2.200260
4770.640000, 2.124250
4771.440000, 2.051370
4772.240000, 1.978510
4773.050000, 1.908640
4773.850000, 1.841590
4774.650000, 1.774560
4775.460000, 1.711970
4776.260000, 1.650650
4777.060000, 1.589540
4777.870000, 1.532540
4778.670000, 1.475560
4779.470000, 1.419550
4780.280000, 1.365740
4781.080000, 1.311950
4781.880000, 1.259630
4782.690000, 1.208460
4783.490000, 1.157310
4784.300000, 1.108770
4785.100000, 1.060830
4785.900000, 1.013200
4786.710000, 0.969692
4787.510000, 0.926196
4788.310000, 0.884151
4789.120000, 0.845180
4789.920000, 0.806222
4790.720000, 0.769403
4791.530000, 0.734219
4792.330000, 0.699046
4793.130000, 0.666543
4793.940000, 0.634664
4794.740000, 0.602955
4795.550000, 0.573998
4796.350000, 0.545051
4797.150000, 0.516931
4797.960000, 0.490776
4798.760000, 0.464629
4799.560000, 0.439954
4800.370000, 0.416570
4801.170000, 0.393194
4801.970000, 0.371808
4802.780000, 0.351030
4803.580000, 0.330258
4804.380000, 0.312257
4805.190000, 0.294261
4805.990000, 0.276912
4806.790000, 0.261712
4807.600000, 0.246517
4808.400000, 0.232279
4809.210000, 0.219173
4810.010000, 0.206073
4810.810000, 0.194074
4811.620000, 0.182591
4812.420000, 0.171111
4813.220000, 0.161138
4814.030000, 0.151328
4814.830000, 0.141697
4815.630000, 0.133312
4816.440000, 0.124930
4817.240000, 0.116979
4818.040000, 0.109860
4818.850000, 0.102743
4819.650000, 0.096320
4820.450000, 0.090454
4821.260000, 0.084590
4822.060000, 0.079126
4822.870000, 0.073785
4823.670000, 0.068446
4824.470000, 0.063050
4825.280000, 0.057654
4826.080000, 0.052358
4826.880000, 0.047496
4827.690000, 0.042636
4828.490000, 0.038298
4829.290000, 0.034789
4830.100000, 0.031281
4830.900000, 0.028511
4831.700000, 0.026260
4832.510000, 0.024009
4833.310000, 0.022071
4834.120000, 0.020217
4834.920000, 0.018364
4835.720000, 0.016433
4836.530000, 0.014500
4837.330000, 0.012632
4838.130000, 0.011060
4838.940000, 0.009489
4839.740000, 0.008216
4840.540000, 0.007457
4841.350000, 0.006699
4842.150000, 0.006324
4842.950000, 0.006256
4843.760000, 0.006189
4844.560000, 0.006185
4845.360000, 0.006204
4846.170000, 0.006223
4846.970000, 0.005547
4847.780000, 0.004814
4848.580000, 0.004004
4849.380000, 0.002531
4850.190000, 0.001058
4850.990000, 0.000001
4851.790000, 0.000001
4852.600000, 0.000001
4853.400000, 0.000001
4854.200000, 0.000001
4855.010000, 0.000001
4855.810000, 0.000001
4856.610000, 0.000001
4857.420000, 0.000001
4858.220000, 0.000001
4859.030000, 0.000001
4859.830000, 0.000001
4860.630000, 0.000001
4861.440000, 0.000001
4862.240000, 0.000001
4863.040000, 0.000001
4863.850000, 0.000001
4864.650000, 0.000001
4865.450000, 0.000001
4866.260000, 0.000001
4867.060000, 0.000001
4867.860000, 0.000001
4868.670000, 0.000001
4869.470000, 0.000001
4870.270000, 0.000001
4871.080000, 0.000001
4871.880000, 0.000001
4872.690000, 0.000001
4873.490000, 0.000001
4874.290000, 0.000001
4875.100000, 0.000001
4875.900000, 0.000001
4876.700000, 0.000001
4877.510000, 0.000001
4878.310000, 0.000001
4879.110000, 0.000001
4879.920000, 0.000001
4880.720000, 0.000001
4881.520000, 0.000001
4882.330000, 0.000001
4883.130000, 0.000001
4883.930000, 0.000001
4884.740000, 0.000001
4885.540000, 0.000001
4886.350000, 0.000001
4887.150000, 0.000001
4887.950000, 0.000001
4888.760000, 0.000001
4889.560000, 0.000001
4890.360000, 0.000001
4891.170000, 0.000001
4891.970000, 0.000001
4892.770000, 0.000001
4893.580000, 0.000001
4894.380000, 0.000001
4895.180000, 0.000001
4895.990000, 0.000001
4896.790000, 0.000001
4897.600000, 0.000001
4898.400000, 0.000001
4899.200000, 0.000001
4900.010000, 0.000001
4900.810000, 0.000001
4901.610000, 0.000001
4902.420000, 0.000001
4903.220000, 0.000001
4904.020000, 0.000001
4904.830000, 0.000001
4905.630000, 0.000001
4906.430000, 0.000001
4907.240000, 0.000001
4908.040000, 0.000001
4908.840000, 0.000001
4909.650000, 0.000001
4910.450000, 0.000001
4911.260000, 0.000001
4912.060000, 0.000001
4912.860000, 0.000001
4913.670000, 0.000001
4914.470000, 0.000001
4915.270000, 0.000001
4916.080000, 0.000001
4916.880000, 0.000001
4917.680000, 0.000001
4918.490000, 0.000001
4919.290000, 0.000001
4920.090000, 0.000001
4920.900000, 0.000001
4921.700000, 0.000001
4922.500000, 0.000001
4923.310000, 0.000001
4924.110000, 0.000001
4924.920000, 0.000001
4925.720000, 0.000001
4926.520000, 0.000001
4927.330000, 0.000001
4928.130000, 0.000001
4928.930000, 0.000001
4929.740000, 0.000001
4930.540000, 0.000001
4931.340000, 0.000001
4932.150000, 0.000001
4932.950000, 0.000001
4933.750000, 0.000001
4934.560000, 0.000001
4935.360000, 0.000001
4936.170000, 0.000001
4936.970000, 0.000001
4937.770000, 0.000001
4938.580000, 0.000001
4939.380000, 0.000001
4940.180000, 0.000001
4940.990000, 0.000001
4941.790000, 0.000001
4942.590000, 0.000001
4943.400000, 0.000001
4944.200000, 0.000001
4945.000000, 0.000001
4945.810000, 0.000001
4946.610000, 0.000001
4947.410000, 0.000001
4948.220000, 0.000001
4949.020000, 0.000001
4949.830000, 0.000001
4950.630000, 0.000001
4951.430000, 0.000001
4952.240000, 0.000001
4953.040000, 0.000001
4953.840000, 0.000001
4954.650000, 0.000001
4955.450000, 0.000001
4956.250000, 0.000001
4957.060000, 0.000001
4957.860000, 0.000001
4958.660000, 0.000001
4959.470000, 0.000001
4960.270000, 0.000001
4961.080000, 0.000001
4961.880000, 0.000001
4962.680000, 0.000001
4963.490000, 0.000001
4964.290000, 0.000001
4965.090000, 0.000001
4965.900000, 0.000001
4966.700000, 0.000001
4967.500000, 0.000209
4968.310000, 0.000497
4969.110000, 0.000784
4969.910000, 0.000785
4970.720000, 0.000696
4971.520000, 0.000608
4972.320000, 0.000432
4973.130000, 0.000233
4973.930000, 0.000035
4974.740000, 0.000001
4975.540000, 0.000001
4976.340000, 0.000001
4977.150000, 0.000001
4977.950000, 0.000001
4978.750000, 0.000001
4979.560000, 0.000001
4980.360000, 0.000001
4981.160000, 0.000001
4981.970000, 0.000001
4982.770000, 0.000001
4983.570000, 0.000001
4984.380000, 0.000001
4985.180000, 0.000001
4985.980000, 0.000001
4986.790000, 0.000001
4987.590000, 0.000001
4988.400000, 0.000001
4989.200000, 0.000001
4990.000000, 0.000001
4990.810000, 0.000001
4991.610000, 0.000001
4992.410000, 0.000001
4993.220000, 0.000001
4994.020000, 0.000001
4994.820000, 0.000001
4995.630000, 0.000001
4996.430000, 0.000001
4997.230000, 0.000001
4998.040000, 0.000001
4998.840000, 0.000118
4999.650000, 0.000236
5000.000000, 0.000353
