# Wavelength  (nm), Transmission (%)
200.000000, 0.000445
201.000000, 0.000440
202.000000, 0.000324
203.000000, 0.000241
204.000000, 0.000340
205.000000, 0.000282
206.000000, 0.000071
207.000000, 0.000377
208.000000, 0.000352
209.000000, 0.000187
210.000000, 0.000434
211.000000, 0.000265
212.000000, 0.000319
213.000000, 0.000001
214.000000, 0.000042
215.000000, 0.000117
216.000000, 0.000294
217.000000, 0.000137
218.000000, 0.000187
219.000000, 0.000302
220.000000, 0.000240
221.000000, 0.000302
222.000000, 0.000457
223.000000, 0.000404
224.000000, 0.000350
225.000000, 0.000199
226.000000, 0.000281
227.000000, 0.000455
228.000000, 0.000463
229.000000, 0.000357
230.000000, 0.000337
231.000000, 0.000381
232.000000, 0.000317
233.000000, 0.000389
234.000000, 0.000479
235.000000, 0.000349
236.000000, 0.000353
237.000000, 0.000467
238.000000, 0.000406
239.000000, 0.000406
240.000000, 0.000487
241.000000, 0.000439
242.000000, 0.000353
243.000000, 0.000418
244.000000, 0.000500
245.000000, 0.000516
246.000000, 0.000528
247.000000, 0.000426
248.000000, 0.000370
249.000000, 0.000353
250.000000, 0.000337
251.000000, 0.000426
252.000000, 0.000462
253.000000, 0.000312
254.000000, 0.000308
255.000000, 0.000365
256.000000, 0.000353
257.000000, 0.000385
258.000000, 0.000409
259.000000, 0.000369
260.000000, 0.000381
261.000000, 0.000429
262.000000, 0.000360
263.000000, 0.000457
264.000000, 0.000526
265.000000, 0.000389
266.000000, 0.000373
267.000000, 0.000284
268.000000, 0.000377
269.000000, 0.000490
270.000000, 0.000550
271.000000, 0.000405
272.000000, 0.000425
273.000000, 0.000385
274.000000, 0.000401
275.000000, 0.000465
276.000000, 0.000518
277.000000, 0.000296
278.000000, 0.000397
279.000000, 0.000312
280.000000, 0.000493
281.000000, 0.000425
282.000000, 0.000513
283.000000, 0.000243
284.000000, 0.000360
285.000000, 0.000380
286.000000, 0.000344
287.000000, 0.000263
288.000000, 0.000444
289.000000, 0.000203
290.000000, 0.000324
291.000000, 0.000432
292.000000, 0.000319
293.000000, 0.000275
294.000000, 0.000444
295.000000, 0.000255
296.000000, 0.000267
297.000000, 0.000351
298.000000, 0.000279
299.000000, 0.000203
300.000000, 0.000379
301.000000, 0.000235
302.000000, 0.000211
303.000000, 0.000315
304.000000, 0.000311
305.000000, 0.000199
306.000000, 0.000379
307.000000, 0.000251
308.000000, 0.000147
309.000000, 0.000279
310.000000, 0.000215
311.000000, 0.000211
312.000000, 0.000263
313.000000, 0.000318
314.000000, 0.000207
315.000000, 0.000195
316.000000, 0.000115
317.000000, 0.000147
318.000000, 0.000191
319.000000, 0.000231
320.000000, 0.000163
321.000000, 0.000292
322.000000, 0.000175
323.000000, 0.000142
324.000000, 0.000239
325.000000, 0.000195
326.000000, 0.000231
327.000000, 0.000219
328.000000, 0.000324
329.000000, 0.000223
330.000000, 0.000307
331.000000, 0.000175
332.000000, 0.000251
333.000000, 0.000203
334.000000, 0.000327
335.000000, 0.000251
336.000000, 0.000383
337.000000, 0.000351
338.000000, 0.000175
339.000000, 0.000407
340.000000, 0.000355
341.000000, 0.000295
342.000000, 0.000387
343.000000, 0.000339
344.000000, 0.000243
345.000000, 0.000431
346.000000, 0.000407
347.000000, 0.000303
348.000000, 0.000387
349.000000, 0.000323
350.000000, 0.000291
351.000000, 0.000426
352.000000, 0.000482
353.000000, 0.000283
354.000000, 0.000414
355.000000, 0.000386
356.000000, 0.000255
357.000000, 0.000410
358.000000, 0.000362
359.000000, 0.000326
360.000000, 0.000454
361.000000, 0.000438
362.000000, 0.000274
363.000000, 0.000441
364.000000, 0.000417
365.000000, 0.000370
366.000000, 0.000473
367.000000, 0.000334
368.000000, 0.000274
369.000000, 0.000445
370.000000, 0.000357
371.000000, 0.000353
372.000000, 0.000472
373.000000, 0.000337
374.000000, 0.000306
375.000000, 0.000408
376.000000, 0.000321
377.000000, 0.000270
378.000000, 0.000389
379.000000, 0.000475
380.000000, 0.000376
381.000000, 0.000289
382.000000, 0.000360
383.000000, 0.000309
384.000000, 0.000218
385.000000, 0.000412
386.000000, 0.000341
387.000000, 0.000270
388.000000, 0.000340
389.000000, 0.000321
390.000000, 0.000293
391.000000, 0.000427
392.000000, 0.000309
393.000000, 0.000281
394.000000, 0.000352
395.000000, 0.000246
396.000000, 0.000250
397.000000, 0.000442
398.000000, 0.000273
399.000000, 0.000316
400.000000, 0.000391
401.000000, 0.000269
402.000000, 0.000203
403.000000, 0.000457
404.000000, 0.000293
405.000000, 0.000230
406.000000, 0.000281
407.000000, 0.000206
408.000000, 0.000230
409.000000, 0.000363
410.000000, 0.000226
411.000000, 0.000312
412.000000, 0.000214
413.000000, 0.000175
414.000000, 0.000230
415.000000, 0.000343
416.000000, 0.000097
417.000000, 0.000175
418.000000, 0.000210
419.000000, 0.000132
420.000000, 0.000175
421.000000, 0.000261
422.000000, 0.000070
423.000000, 0.000156
424.000000, 0.000214
425.000000, 0.000144
426.000000, 0.000202
427.000000, 0.000288
428.000000, 0.000183
429.000000, 0.000218
430.000000, 0.000164
431.000000, 0.000109
432.000000, 0.000226
433.000000, 0.000261
434.000000, 0.000168
435.000000, 0.000187
436.000000, 0.000183
437.000000, 0.000152
438.000000, 0.000229
439.000000, 0.000210
440.000000, 0.000222
441.000000, 0.000195
442.000000, 0.000171
443.000000, 0.000063
444.000000, 0.000195
445.000000, 0.000249
446.000000, 0.000206
447.000000, 0.000202
448.000000, 0.000229
449.000000, 0.000137
450.000000, 0.000233
451.000000, 0.000260
452.000000, 0.000160
453.000000, 0.000114
454.000000, 0.000199
455.000000, 0.000125
456.000000, 0.000206
457.000000, 0.000191
458.000000, 0.000106
459.000000, 0.000133
460.000000, 0.000187
461.000000, 0.000129
462.000000, 0.000241
463.000000, 0.000260
464.000000, 0.000199
465.000000, 0.000172
466.000000, 0.000156
467.000000, 0.000095
468.000000, 0.000206
469.000000, 0.000245
470.000000, 0.000152
471.000000, 0.000137
472.000000, 0.000141
473.000000, 0.000099
474.000000, 0.000179
475.000000, 0.000202
476.000000, 0.000145
477.000000, 0.000149
478.000000, 0.000168
479.000000, 0.000114
480.000000, 0.000218
481.000000, 0.000260
482.000000, 0.000164
483.000000, 0.000160
484.000000, 0.000137
485.000000, 0.000057
486.000000, 0.000164
487.000000, 0.000187
488.000000, 0.000084
489.000000, 0.000149
490.000000, 0.000137
491.000000, 0.000095
492.000000, 0.000229
493.000000, 0.000267
494.000000, 0.000156
495.000000, 0.000153
496.000000, 0.000145
497.000000, 0.000091
498.000000, 0.000191
499.000000, 0.000244
500.000000, 0.000141
501.000000, 0.000149
502.000000, 0.000122
503.000000, 0.000080
504.000000, 0.000206
505.000000, 0.000221
506.000000, 0.000111
507.000000, 0.000153
508.000000, 0.000137
509.000000, 0.000088
510.000000, 0.000202
511.000000, 0.000202
512.000000, 0.000065
513.000000, 0.000103
514.000000, 0.000122
515.000000, 0.000099
516.000000, 0.000214
517.000000, 0.000218
518.000000, 0.000099
519.000000, 0.000145
520.000000, 0.000145
521.000000, 0.000088
522.000000, 0.000187
523.000000, 0.000176
524.000000, 0.000046
525.000000, 0.000115
526.000000, 0.000118
527.000000, 0.000092
528.000000, 0.000206
529.000000, 0.000221
530.000000, 0.000111
531.000000, 0.000145
532.000000, 0.000149
533.000000, 0.000134
534.000000, 0.000248
535.000000, 0.000214
536.000000, 0.000088
537.000000, 0.000168
538.000000, 0.000122
539.000000, 0.000122
540.000000, 0.000255
541.000000, 0.000210
542.000000, 0.000103
543.000000, 0.000172
544.000000, 0.000183
545.000000, 0.000119
546.000000, 0.000183
547.000000, 0.000183
548.000000, 0.000077
549.000000, 0.000179
550.000000, 0.000210
551.000000, 0.000157
552.000000, 0.000248
553.000000, 0.000221
554.000000, 0.000103
555.000000, 0.000229
556.000000, 0.000210
557.000000, 0.000202
558.000000, 0.000305
559.000000, 0.000263
560.000000, 0.000172
561.000000, 0.000255
562.000000, 0.000214
563.000000, 0.000290
564.000000, 0.000320
565.000000, 0.000217
566.000000, 0.000259
567.000000, 0.000233
568.000000, 0.000183
569.000000, 0.000362
570.000000, 0.000293
571.000000, 0.000240
572.000000, 0.000312
573.000000, 0.000282
574.000000, 0.000210
575.000000, 0.000358
576.000000, 0.000358
577.000000, 0.000312
578.000000, 0.000404
579.000000, 0.000392
580.000000, 0.000290
581.000000, 0.000396
582.000000, 0.000392
583.000000, 0.000358
584.000000, 0.000426
585.000000, 0.000369
586.000000, 0.000350
587.000000, 0.000498
588.000000, 0.000407
589.000000, 0.000354
590.000000, 0.000453
591.000000, 0.000426
592.000000, 0.000369
593.000000, 0.000468
594.000000, 0.000411
595.000000, 0.000373
596.000000, 0.000532
597.000000, 0.000475
598.000000, 0.000411
599.000000, 0.000487
600.000000, 0.000434
601.000000, 0.000434
602.000000, 0.000555
603.000000, 0.000487
604.000000, 0.000452
605.000000, 0.000562
606.000000, 0.000441
607.000000, 0.000411
608.000000, 0.000597
609.000000, 0.000494
610.000000, 0.000468
611.000000, 0.000559
612.000000, 0.000464
613.000000, 0.000395
614.000000, 0.000589
615.000000, 0.000498
616.000000, 0.000513
617.000000, 0.000627
618.000000, 0.000486
619.000000, 0.000369
620.000000, 0.000577
621.000000, 0.000521
622.000000, 0.000513
623.000000, 0.000619
624.000000, 0.000498
625.000000, 0.000452
626.000000, 0.000638
627.000000, 0.000517
628.000000, 0.000524
629.000000, 0.000600
630.000000, 0.000596
631.000000, 0.000426
632.000000, 0.000642
633.000000, 0.000547
634.000000, 0.000513
635.000000, 0.000649
636.000000, 0.000513
637.000000, 0.000437
638.000000, 0.000683
639.000000, 0.000573
640.000000, 0.000558
641.000000, 0.000652
642.000000, 0.000497
643.000000, 0.000429
644.000000, 0.000667
645.000000, 0.000599
646.000000, 0.000550
647.000000, 0.000626
648.000000, 0.000474
649.000000, 0.000588
650.000000, 0.000652
651.000000, 0.000531
652.000000, 0.000512
653.000000, 0.000705
654.000000, 0.000523
655.000000, 0.000512
656.000000, 0.000689
657.000000, 0.000629
658.000000, 0.000519
659.000000, 0.000625
660.000000, 0.000470
661.000000, 0.000557
662.000000, 0.000719
663.000000, 0.000659
664.000000, 0.000583
665.000000, 0.000794
666.000000, 0.000477
667.000000, 0.000534
668.000000, 0.000651
669.000000, 0.000598
670.000000, 0.000564
671.000000, 0.000598
672.000000, 0.000473
673.000000, 0.000594
674.000000, 0.000696
675.000000, 0.000594
676.000000, 0.000579
677.000000, 0.000699
678.000000, 0.000447
679.000000, 0.000571
680.000000, 0.000654
681.000000, 0.000605
682.000000, 0.000556
683.000000, 0.000672
684.000000, 0.000465
685.000000, 0.000544
686.000000, 0.000687
687.000000, 0.000586
688.000000, 0.000597
689.000000, 0.000710
690.000000, 0.000488
691.000000, 0.000600
692.000000, 0.000642
693.000000, 0.000634
694.000000, 0.000544
695.000000, 0.000754
696.000000, 0.000472
697.000000, 0.000701
698.000000, 0.000675
699.000000, 0.000634
700.000000, 0.000555
701.000000, 0.000731
702.000000, 0.000641
703.000000, 0.000742
704.000000, 0.000723
705.000000, 0.000622
706.000000, 0.000528
707.000000, 0.000689
708.000000, 0.000532
709.000000, 0.000565
710.000000, 0.000708
711.000000, 0.000681
712.000000, 0.000576
713.000000, 0.000774
714.000000, 0.000535
715.000000, 0.000580
716.000000, 0.000752
717.000000, 0.000636
718.000000, 0.000692
719.000000, 0.000703
720.000000, 0.000557
721.000000, 0.000602
722.000000, 0.000792
723.000000, 0.000642
724.000000, 0.000642
725.000000, 0.000754
726.000000, 0.000631
727.000000, 0.000579
728.000000, 0.000750
729.000000, 0.000541
730.000000, 0.000683
731.000000, 0.000694
732.000000, 0.000641
733.000000, 0.000582
734.000000, 0.000820
735.000000, 0.000615
736.000000, 0.000701
737.000000, 0.000656
738.000000, 0.000712
739.000000, 0.000581
740.000000, 0.000782
741.000000, 0.000633
742.000000, 0.000718
743.000000, 0.000726
744.000000, 0.000603
745.000000, 0.000673
746.000000, 0.000740
747.000000, 0.000573
748.000000, 0.000736
749.000000, 0.000747
750.000000, 0.000810
751.000000, 0.000595
752.000000, 0.000762
753.000000, 0.000583
754.000000, 0.000776
755.000000, 0.000754
756.000000, 0.000802
757.000000, 0.000624
758.000000, 0.000735
759.000000, 0.000575
760.000000, 0.000686
761.000000, 0.000782
762.000000, 0.000793
763.000000, 0.000667
764.000000, 0.000708
765.000000, 0.000623
766.000000, 0.000774
767.000000, 0.000803
768.000000, 0.000777
769.000000, 0.000681
770.000000, 0.000781
771.000000, 0.000674
772.000000, 0.000673
773.000000, 0.000817
774.000000, 0.000765
775.000000, 0.000677
776.000000, 0.000695
777.000000, 0.000680
778.000000, 0.000662
779.000000, 0.000831
780.000000, 0.000750
781.000000, 0.000661
782.000000, 0.000768
783.000000, 0.000679
784.000000, 0.000628
785.000000, 0.000808
786.000000, 0.000738
787.000000, 0.000664
788.000000, 0.000741
789.000000, 0.000704
790.000000, 0.000704
791.000000, 0.000869
792.000000, 0.000784
793.000000, 0.000671
794.000000, 0.000781
795.000000, 0.000744
796.000000, 0.000766
797.000000, 0.000791
798.000000, 0.000802
799.000000, 0.000692
800.000000, 0.000816
801.000000, 0.000666
802.000000, 0.000681
803.000000, 0.000787
804.000000, 0.000706
805.000000, 0.000732
806.000000, 0.000757
807.000000, 0.000669
808.000000, 0.000691
809.000000, 0.000775
810.000000, 0.000793
811.000000, 0.000844
812.000000, 0.000683
813.000000, 0.000745
814.000000, 0.000647
815.000000, 0.000782
816.000000, 0.000702
817.000000, 0.000796
818.000000, 0.000785
819.000000, 0.000727
820.000000, 0.000709
821.000000, 0.000811
822.000000, 0.000713
823.000000, 0.000742
824.000000, 0.000749
825.000000, 0.000629
826.000000, 0.000658
827.000000, 0.000728
828.000000, 0.000691
829.000000, 0.000808
830.000000, 0.000904
831.000000, 0.000794
832.000000, 0.000707
833.000000, 0.000824
834.000000, 0.000828
835.000000, 0.000784
836.000000, 0.000854
837.000000, 0.000756
838.000000, 0.000672
839.000000, 0.000786
840.000000, 0.000896
841.000000, 0.000816
842.000000, 0.000849
843.000000, 0.000710
844.000000, 0.000736
845.000000, 0.000814
846.000000, 0.000921
847.000000, 0.000863
848.000000, 0.000837
849.000000, 0.000712
850.000000, 0.000749
851.000000, 0.000808
852.000000, 0.000805
853.000000, 0.000850
854.000000, 0.000916
855.000000, 0.000727
856.000000, 0.000672
857.000000, 0.000773
858.000000, 0.000824
859.000000, 0.000799
860.000000, 0.000971
861.000000, 0.000957
862.000000, 0.000772
863.000000, 0.000701
864.000000, 0.000703
865.000000, 0.000746
866.000000, 0.000802
867.000000, 0.000828
868.000000, 0.000841
869.000000, 0.000774
870.000000, 0.000693
871.000000, 0.000644
872.000000, 0.000630
873.000000, 0.000707
874.000000, 0.000814
875.000000, 0.000899
876.000000, 0.000868
877.000000, 0.000719
878.000000, 0.000649
879.000000, 0.000700
880.000000, 0.000776
881.000000, 0.000811
882.000000, 0.000801
883.000000, 0.000800
884.000000, 0.000826
885.000000, 0.000779
886.000000, 0.000703
887.000000, 0.000673
888.000000, 0.000805
889.000000, 0.000873
890.000000, 0.000780
891.000000, 0.000679
892.000000, 0.000657
893.000000, 0.000743
894.000000, 0.000779
895.000000, 0.000728
896.000000, 0.000714
897.000000, 0.000813
898.000000, 0.000859
899.000000, 0.000803
900.000000, 0.000754
901.000000, 0.000673
902.000000, 0.000682
903.000000, 0.000791
904.000000, 0.000851
905.000000, 0.000839
906.000000, 0.000784
907.000000, 0.000717
908.000000, 0.000743
909.000000, 0.000810
910.000000, 0.000733
911.000000, 0.000690
912.000000, 0.000824
913.000000, 0.000884
914.000000, 0.000802
915.000000, 0.000745
916.000000, 0.000774
917.000000, 0.000808
918.000000, 0.000758
919.000000, 0.000660
920.000000, 0.000668
921.000000, 0.000708
922.000000, 0.000731
923.000000, 0.000800
924.000000, 0.000861
925.000000, 0.000829
926.000000, 0.000765
927.000000, 0.000749
928.000000, 0.000727
929.000000, 0.000738
930.000000, 0.000782
931.000000, 0.000754
932.000000, 0.000777
933.000000, 0.000856
934.000000, 0.000789
935.000000, 0.000689
936.000000, 0.000637
937.000000, 0.000730
938.000000, 0.000900
939.000000, 0.000898
940.000000, 0.000763
941.000000, 0.000712
942.000000, 0.000730
943.000000, 0.000778
944.000000, 0.000866
945.000000, 0.000784
946.000000, 0.000702
947.000000, 0.000751
948.000000, 0.000808
949.000000, 0.000740
950.000000, 0.000726
951.000000, 0.000731
952.000000, 0.000768
953.000000, 0.000884
954.000000, 0.000870
955.000000, 0.000743
956.000000, 0.000684
957.000000, 0.000690
958.000000, 0.000748
959.000000, 0.000802
960.000000, 0.000751
961.000000, 0.000754
962.000000, 0.000864
963.000000, 0.000874
964.000000, 0.000747
965.000000, 0.000616
966.000000, 0.000704
967.000000, 0.000833
968.000000, 0.000881
969.000000, 0.000764
970.000000, 0.000740
971.000000, 0.000749
972.000000, 0.000773
973.000000, 0.000804
974.000000, 0.000852
975.000000, 0.000759
976.000000, 0.000732
977.000000, 0.000743
978.000000, 0.000747
979.000000, 0.000762
980.000000, 0.000786
981.000000, 0.000853
982.000000, 0.000781
983.000000, 0.000734
984.000000, 0.000778
985.000000, 0.000863
986.000000, 0.000790
987.000000, 0.000778
988.000000, 0.000756
989.000000, 0.000741
990.000000, 0.000739
991.000000, 0.000721
992.000000, 0.000737
993.000000, 0.000792
994.000000, 0.000919
995.000000, 0.000806
996.000000, 0.000764
997.000000, 0.000743
998.000000, 0.000753
999.000000, 0.000754
1000.000000, 0.000764
1001.000000, 0.000764
1002.000000, 0.000781
1003.000000, 0.000751
1004.000000, 0.000730
1005.000000, 0.000727
1006.000000, 0.000729
1007.000000, 0.000728
1008.000000, 0.000790
1009.000000, 0.000897
1010.000000, 0.000792
1011.000000, 0.000729
1012.000000, 0.000705
1013.000000, 0.000707
1014.000000, 0.000773
1015.000000, 0.000879
1016.000000, 0.000752
1017.000000, 0.000731
1018.000000, 0.000750
1019.000000, 0.000738
1020.000000, 0.000749
1021.000000, 0.000744
1022.000000, 0.000776
1023.000000, 0.000795
1024.000000, 0.000745
1025.000000, 0.000752
1026.000000, 0.000772
1027.000000, 0.000926
1028.000000, 0.000788
1029.000000, 0.000775
1030.000000, 0.000784
1031.000000, 0.000763
1032.000000, 0.000735
1033.000000, 0.000704
1034.000000, 0.000712
1035.000000, 0.000736
1036.000000, 0.000753
1037.000000, 0.000777
1038.000000, 0.000734
1039.000000, 0.000728
1040.000000, 0.000795
1041.000000, 0.000897
1042.000000, 0.000793
1043.000000, 0.000777
1044.000000, 0.000797
1045.000000, 0.000773
1046.000000, 0.000759
1047.000000, 0.000756
1048.000000, 0.000755
1049.000000, 0.000757
1050.000000, 0.000782
1051.000000, 0.000795
1052.000000, 0.000733
1053.000000, 0.000746
1054.000000, 0.000744
1055.000000, 0.000753
1056.000000, 0.000802
1057.000000, 0.000926
1058.000000, 0.000780
1059.000000, 0.000787
1060.000000, 0.000760
1061.000000, 0.000738
1062.000000, 0.000773
1063.000000, 0.000759
1064.000000, 0.000756
1065.000000, 0.000739
1066.000000, 0.000818
1067.000000, 0.000902
1068.000000, 0.000761
1069.000000, 0.000746
1070.000000, 0.000763
1071.000000, 0.000729
1072.000000, 0.000746
1073.000000, 0.000739
1074.000000, 0.000804
1075.000000, 0.000824
1076.000000, 0.000895
1077.000000, 0.000716
1078.000000, 0.000683
1079.000000, 0.000681
1080.000000, 0.000660
1081.000000, 0.000691
1082.000000, 0.000763
1083.000000, 0.000807
1084.000000, 0.000902
1085.000000, 0.000883
1086.000000, 0.000697
1087.000000, 0.000715
1088.000000, 0.000711
1089.000000, 0.000730
1090.000000, 0.000675
1091.000000, 0.000763
1092.000000, 0.000940
1093.000000, 0.000887
1094.000000, 0.000743
1095.000000, 0.000746
1096.000000, 0.000763
1097.000000, 0.000722
1098.000000, 0.000723
1099.000000, 0.000718
1100.000000, 0.000798
1101.000000, 0.000954
1102.000000, 0.000933
1103.000000, 0.000808
1104.000000, 0.000767
1105.000000, 0.000737
1106.000000, 0.000765
1107.000000, 0.000734
1108.000000, 0.000734
1109.000000, 0.000758
1110.000000, 0.000767
1111.000000, 0.000773
1112.000000, 0.000734
1113.000000, 0.000722
1114.000000, 0.000717
1115.000000, 0.000731
1116.000000, 0.000731
1117.000000, 0.000711
1118.000000, 0.000728
1119.000000, 0.000728
1120.000000, 0.000687
1121.000000, 0.000663
1122.000000, 0.000725
1123.000000, 0.000894
1124.000000, 0.000918
1125.000000, 0.000921
1126.000000, 0.000894
1127.000000, 0.000749
1128.000000, 0.000742
1129.000000, 0.000666
1130.000000, 0.000654
1131.000000, 0.000718
1132.000000, 0.000851
1133.000000, 0.000890
1134.000000, 0.000907
1135.000000, 0.000875
1136.000000, 0.000748
1137.000000, 0.000752
1138.000000, 0.000775
1139.000000, 0.000756
1140.000000, 0.000797
1141.000000, 0.000788
1142.000000, 0.000765
1143.000000, 0.000755
1144.000000, 0.000738
1145.000000, 0.000735
1146.000000, 0.000721
1147.000000, 0.000704
1148.000000, 0.000720
1149.000000, 0.000750
1150.000000, 0.000815
1151.000000, 0.000935
1152.000000, 0.000865
1153.000000, 0.000725
1154.000000, 0.000712
1155.000000, 0.000698
1156.000000, 0.000714
1157.000000, 0.000690
1158.000000, 0.000659
1159.000000, 0.000636
1160.000000, 0.000704
1161.000000, 0.000854
1162.000000, 0.000872
1163.000000, 0.000923
1164.000000, 0.000934
1165.000000, 0.000921
1166.000000, 0.000886
1167.000000, 0.000751
1168.000000, 0.000734
1169.000000, 0.000734
1170.000000, 0.000706
1171.000000, 0.000730
1172.000000, 0.000719
1173.000000, 0.000666
1174.000000, 0.000649
1175.000000, 0.000627
1176.000000, 0.000627
1177.000000, 0.000679
1178.000000, 0.000784
1179.000000, 0.000786
1180.000000, 0.000757
1181.000000, 0.000746
1182.000000, 0.000769
1183.000000, 0.000760
1184.000000, 0.000792
1185.000000, 0.000780
1186.000000, 0.000787
1187.000000, 0.000828
1188.000000, 0.000776
1189.000000, 0.000774
1190.000000, 0.000711
1191.000000, 0.000703
1192.000000, 0.000719
1193.000000, 0.000798
1194.000000, 0.000894
1195.000000, 0.000878
1196.000000, 0.000833
1197.000000, 0.000720
1198.000000, 0.000726
1199.000000, 0.000782
1200.000000, 0.000835
1201.000000, 0.000723
1202.000000, 0.000732
1203.000000, 0.000770
1204.000000, 0.000855
1205.000000, 0.000884
1206.000000, 0.000749
1207.000000, 0.000760
1208.000000, 0.000757
1209.000000, 0.000752
1210.000000, 0.000745
1211.000000, 0.000753
1212.000000, 0.000759
1213.000000, 0.000746
1214.000000, 0.000719
1215.000000, 0.000707
1216.000000, 0.000701
1217.000000, 0.000726
1218.000000, 0.000813
1219.000000, 0.000804
1220.000000, 0.000725
1221.000000, 0.000704
1222.000000, 0.000723
1223.000000, 0.000813
1224.000000, 0.000909
1225.000000, 0.000913
1226.000000, 0.000831
1227.000000, 0.000749
1228.000000, 0.000753
1229.000000, 0.000723
1230.000000, 0.000708
1231.000000, 0.000689
1232.000000, 0.000675
1233.000000, 0.000675
1234.000000, 0.000770
1235.000000, 0.000868
1236.000000, 0.000784
1237.000000, 0.000712
1238.000000, 0.000677
1239.000000, 0.000671
1240.000000, 0.000741
1241.000000, 0.000835
1242.000000, 0.000853
1243.000000, 0.000876
1244.000000, 0.000898
1245.000000, 0.000869
1246.000000, 0.000760
1247.000000, 0.000648
1248.000000, 0.000660
1249.000000, 0.000694
1250.000000, 0.000806
1251.000000, 0.000826
1252.000000, 0.000718
1253.000000, 0.000696
1254.000000, 0.000676
1255.000000, 0.000653
1256.000000, 0.000686
1257.000000, 0.000799
1258.000000, 0.000875
1259.000000, 0.000888
1260.000000, 0.000897
1261.000000, 0.000832
1262.000000, 0.000722
1263.000000, 0.000669
1264.000000, 0.000670
1265.000000, 0.000646
1266.000000, 0.000629
1267.000000, 0.000718
1268.000000, 0.000806
1269.000000, 0.000807
1270.000000, 0.000828
1271.000000, 0.000849
1272.000000, 0.000861
1273.000000, 0.000855
1274.000000, 0.000852
1275.000000, 0.000875
1276.000000, 0.000899
1277.000000, 0.000882
1278.000000, 0.000787
1279.000000, 0.000717
1280.000000, 0.000739
1281.000000, 0.000754
1282.000000, 0.000796
1283.000000, 0.000801
1284.000000, 0.000751
1285.000000, 0.000738
1286.000000, 0.000754
1287.000000, 0.000759
1288.000000, 0.000767
1289.000000, 0.000755
1290.000000, 0.000752
1291.000000, 0.000742
1292.000000, 0.000720
1293.000000, 0.000701
1294.000000, 0.000696
1295.000000, 0.000737
1296.000000, 0.000803
1297.000000, 0.000890
1298.000000, 0.000913
1299.000000, 0.000831
1300.000000, 0.000762
1301.000000, 0.000772
1302.000000, 0.000782
1303.000000, 0.000788
1304.000000, 0.000790
1305.000000, 0.000785
1306.000000, 0.000787
1307.000000, 0.000794
1308.000000, 0.000796
1309.000000, 0.000807
1310.000000, 0.000810
1311.000000, 0.000825
1312.000000, 0.000781
1313.000000, 0.000642
1314.000000, 0.000531
1315.000000, 0.000553
1316.000000, 0.000708
1317.000000, 0.000784
1318.000000, 0.000812
1319.000000, 0.000789
1320.000000, 0.000778
1321.000000, 0.000787
1322.000000, 0.000799
1323.000000, 0.000790
1324.000000, 0.000807
1325.000000, 0.000830
1326.000000, 0.000856
1327.000000, 0.000842
1328.000000, 0.000860
1329.000000, 0.000874
1330.000000, 0.000821
1331.000000, 0.000715
1332.000000, 0.000646
1333.000000, 0.000654
1334.000000, 0.000687
1335.000000, 0.000799
1336.000000, 0.000875
1337.000000, 0.000870
1338.000000, 0.000848
1339.000000, 0.000712
1340.000000, 0.000670
1341.000000, 0.000630
1342.000000, 0.000664
1343.000000, 0.000807
1344.000000, 0.000878
1345.000000, 0.000831
1346.000000, 0.000799
1347.000000, 0.000809
1348.000000, 0.000771
1349.000000, 0.000741
1350.000000, 0.000741
1351.000000, 0.000752
1352.000000, 0.000763
1353.000000, 0.000781
1354.000000, 0.000812
1355.000000, 0.000781
1356.000000, 0.000705
1357.000000, 0.000668
1358.000000, 0.000666
1359.000000, 0.000774
1360.000000, 0.000812
1361.000000, 0.000842
1362.000000, 0.000798
1363.000000, 0.000675
1364.000000, 0.000601
1365.000000, 0.000769
1366.000000, 0.000866
1367.000000, 0.000859
1368.000000, 0.000846
1369.000000, 0.000878
1370.000000, 0.000801
1371.000000, 0.000790
1372.000000, 0.000886
1373.000000, 0.000796
1374.000000, 0.000806
1375.000000, 0.000790
1376.000000, 0.000737
1377.000000, 0.000732
1378.000000, 0.000681
1379.000000, 0.000714
1380.000000, 0.000788
1381.000000, 0.000941
1382.000000, 0.000724
1383.000000, 0.000677
1384.000000, 0.000751
1385.000000, 0.000783
1386.000000, 0.000862
1387.000000, 0.000895
1388.000000, 0.000729
1389.000000, 0.000730
1390.000000, 0.000722
1391.000000, 0.000649
1392.000000, 0.000674
1393.000000, 0.000778
1394.000000, 0.000873
1395.000000, 0.000803
1396.000000, 0.000703
1397.000000, 0.000836
1398.000000, 0.000900
1399.000000, 0.000794
1400.000000, 0.000642
1401.000000, 0.000659
1402.000000, 0.000747
1403.000000, 0.000839
1404.000000, 0.000790
1405.000000, 0.000759
1406.000000, 0.000780
1407.000000, 0.000838
1408.000000, 0.000871
1409.000000, 0.000825
1410.000000, 0.000787
1411.000000, 0.000768
1412.000000, 0.000770
1413.000000, 0.000707
1414.000000, 0.000674
1415.000000, 0.000715
1416.000000, 0.000914
1417.000000, 0.000972
1418.000000, 0.000749
1419.000000, 0.000682
1420.000000, 0.000685
1421.000000, 0.000723
1422.000000, 0.000876
1423.000000, 0.000686
1424.000000, 0.000654
1425.000000, 0.000725
1426.000000, 0.000888
1427.000000, 0.000881
1428.000000, 0.000703
1429.000000, 0.000733
1430.000000, 0.000756
1431.000000, 0.000920
1432.000000, 0.000932
1433.000000, 0.000907
1434.000000, 0.000756
1435.000000, 0.000754
1436.000000, 0.000751
1437.000000, 0.000715
1438.000000, 0.000697
1439.000000, 0.000780
1440.000000, 0.000870
1441.000000, 0.000705
1442.000000, 0.000673
1443.000000, 0.000695
1444.000000, 0.000702
1445.000000, 0.000687
1446.000000, 0.000854
1447.000000, 0.000842
1448.000000, 0.000878
1449.000000, 0.000701
1450.000000, 0.000695
1451.000000, 0.000674
1452.000000, 0.000839
1453.000000, 0.000868
1454.000000, 0.000902
1455.000000, 0.000846
1456.000000, 0.000720
1457.000000, 0.000799
1458.000000, 0.000973
1459.000000, 0.000883
1460.000000, 0.000761
1461.000000, 0.000725
1462.000000, 0.000741
1463.000000, 0.000727
1464.000000, 0.000703
1465.000000, 0.000751
1466.000000, 0.000888
1467.000000, 0.000849
1468.000000, 0.000983
1469.000000, 0.000890
1470.000000, 0.000683
1471.000000, 0.000792
1472.000000, 0.000730
1473.000000, 0.000570
1474.000000, 0.000913
1475.000000, 0.000624
1476.000000, 0.000876
1477.000000, 0.000895
1478.000000, 0.000718
1479.000000, 0.000790
1480.000000, 0.000781
1481.000000, 0.000889
1482.000000, 0.000831
1483.000000, 0.002660
1484.000000, 0.011680
1485.000000, 0.056910
1486.000000, 0.147060
1487.000000, 0.293930
1488.000000, 0.513090
1489.000000, 0.735140
1490.000000, 1.064870
1491.000000, 1.434290
1492.000000, 2.131280
1493.000000, 3.699110
1494.000000, 7.741550
1495.000000, 16.761710
1496.000000, 33.523020
1497.000000, 56.776790
1498.000000, 79.134400
1499.000000, 92.074970
1500.000000, 96.869510
1501.000000, 97.762840
1502.000000, 98.016870
1503.000000, 98.177550
1504.000000, 98.155840
1505.000000, 98.059080
1506.000000, 97.946480
1507.000000, 97.986900
1508.000000, 98.130250
1509.000000, 98.345180
1510.000000, 98.531360
1511.000000, 98.704330
1512.000000, 98.809820
1513.000000, 98.821620
1514.000000, 98.846740
1515.000000, 98.828910
1516.000000, 98.802370
1517.000000, 98.844740
1518.000000, 98.911410
1519.000000, 98.995450
1520.000000, 99.078630
1521.000000, 99.150970
1522.000000, 99.190900
1523.000000, 99.230230
1524.000000, 99.262980
1525.000000, 99.255990
1526.000000, 99.244390
1527.000000, 99.234520
1528.000000, 99.185980
1529.000000, 99.172120
1530.000000, 99.134140
1531.000000, 99.096980
1532.000000, 99.088060
1533.000000, 99.065000
1534.000000, 99.069760
1535.000000, 99.101010
1536.000000, 99.131780
1537.000000, 99.196680
1538.000000, 99.187660
1539.000000, 99.208520
1540.000000, 99.226430
1541.000000, 99.222140
1542.000000, 99.235460
1543.000000, 99.238330
1544.000000, 99.209470
1545.000000, 99.175040
1546.000000, 99.136150
1547.000000, 99.113180
1548.000000, 99.067090
1549.000000, 99.022010
1550.000000, 98.966940
1551.000000, 98.972650
1552.000000, 98.980550
1553.000000, 98.983360
1554.000000, 99.011650
1555.000000, 99.043300
1556.000000, 99.081160
1557.000000, 99.126700
1558.000000, 99.188250
1559.000000, 99.226350
1560.000000, 99.251110
1561.000000, 99.305000
1562.000000, 99.322380
1563.000000, 99.300200
1564.000000, 99.349420
1565.000000, 99.368170
1566.000000, 99.364570
1567.000000, 99.339360
1568.000000, 99.334330
1569.000000, 99.316250
1570.000000, 99.291210
1571.000000, 99.262210
1572.000000, 99.264440
1573.000000, 99.271720
1574.000000, 99.276900
1575.000000, 99.281590
1576.000000, 99.295880
1577.000000, 99.310610
1578.000000, 99.319040
1579.000000, 99.317530
1580.000000, 99.322910
1581.000000, 99.352430
1582.000000, 99.367880
1583.000000, 99.361020
1584.000000, 99.356810
1585.000000, 99.359220
1586.000000, 99.341730
1587.000000, 99.321330
1588.000000, 99.307020
1589.000000, 99.271290
1590.000000, 99.241940
1591.000000, 99.226560
1592.000000, 99.203400
1593.000000, 99.184640
1594.000000, 99.177240
1595.000000, 99.168270
1596.000000, 99.161120
1597.000000, 99.161600
1598.000000, 99.190630
1599.000000, 99.231540
1600.000000, 99.251350
1601.000000, 99.265000
1602.000000, 99.296710
1603.000000, 99.316290
1604.000000, 99.336120
1605.000000, 99.353460
1606.000000, 99.372880
1607.000000, 99.399570
1608.000000, 99.382840
1609.000000, 99.375770
1610.000000, 99.373920
1611.000000, 99.359000
1612.000000, 99.335180
1613.000000, 99.327590
1614.000000, 99.308160
1615.000000, 99.280900
1616.000000, 99.268320
1617.000000, 99.246160
1618.000000, 99.236740
1619.000000, 99.233530
1620.000000, 99.207900
1621.000000, 99.192130
1622.000000, 99.195480
1623.000000, 99.226650
1624.000000, 99.223540
1625.000000, 99.218110
1626.000000, 99.250350
1627.000000, 99.277450
1628.000000, 99.298600
1629.000000, 99.321350
1630.000000, 99.325860
1631.000000, 99.295780
1632.000000, 99.319680
1633.000000, 99.371840
1634.000000, 99.356970
1635.000000, 99.359560
1636.000000, 99.376460
1637.000000, 99.367420
1638.000000, 99.360350
1639.000000, 99.359040
1640.000000, 99.349770
1641.000000, 99.341200
1642.000000, 99.321590
1643.000000, 99.310500
1644.000000, 99.309990
1645.000000, 99.287180
1646.000000, 99.272140
1647.000000, 99.262950
1648.000000, 99.266670
1649.000000, 99.274110
1650.000000, 99.273500
1651.000000, 99.282740
1652.000000, 99.295170
1653.000000, 99.318390
1654.000000, 99.334130
1655.000000, 99.347200
1656.000000, 99.364010
1657.000000, 99.376790
1658.000000, 99.393570
1659.000000, 99.401930
1660.000000, 99.403790
1661.000000, 99.397350
1662.000000, 99.402630
1663.000000, 99.421420
1664.000000, 99.416820
1665.000000, 99.384580
1666.000000, 99.367710
1667.000000, 99.373850
1668.000000, 99.374870
1669.000000, 99.363460
1670.000000, 99.341770
1671.000000, 99.309290
1672.000000, 99.299830
1673.000000, 99.298540
1674.000000, 99.293460
1675.000000, 99.288220
1676.000000, 99.272900
1677.000000, 99.266840
1678.000000, 99.272030
1679.000000, 99.270050
1680.000000, 99.256700
1681.000000, 99.268020
1682.000000, 99.282150
1683.000000, 99.293570
1684.000000, 99.307570
1685.000000, 99.306180
1686.000000, 99.322590
1687.000000, 99.348780
1688.000000, 99.368850
1689.000000, 99.364930
1690.000000, 99.346370
1691.000000, 99.346880
1692.000000, 99.340150
1693.000000, 99.354630
1694.000000, 99.379280
1695.000000, 99.389890
1696.000000, 99.399380
1697.000000, 99.407040
1698.000000, 99.411990
1699.000000, 99.385160
1700.000000, 99.370200
1701.000000, 99.359510
1702.000000, 99.357080
1703.000000, 99.339390
1704.000000, 99.314540
1705.000000, 99.310150
1706.000000, 99.323990
1707.000000, 99.319370
1708.000000, 99.306110
1709.000000, 99.293710
1710.000000, 99.269160
1711.000000, 99.279460
1712.000000, 99.291710
1713.000000, 99.269440
1714.000000, 99.256820
1715.000000, 99.259980
1716.000000, 99.271030
1717.000000, 99.290440
1718.000000, 99.266110
1719.000000, 99.300650
1720.000000, 99.321160
1721.000000, 99.347450
1722.000000, 99.364490
1723.000000, 99.356530
1724.000000, 99.377780
1725.000000, 99.401840
1726.000000, 99.428680
1727.000000, 99.420090
1728.000000, 99.407820
1729.000000, 99.425740
1730.000000, 99.422550
1731.000000, 99.401120
1732.000000, 99.409060
1733.000000, 99.404400
1734.000000, 99.424930
1735.000000, 99.437200
1736.000000, 99.430760
1737.000000, 99.428090
1738.000000, 99.394770
1739.000000, 99.392450
1740.000000, 99.395630
1741.000000, 99.382790
1742.000000, 99.385390
1743.000000, 99.390290
1744.000000, 99.351990
1745.000000, 99.345550
1746.000000, 99.334230
1747.000000, 99.329500
1748.000000, 99.325380
1749.000000, 99.325270
1750.000000, 99.329960
1751.000000, 99.310690
1752.000000, 99.314340
1753.000000, 99.330930
1754.000000, 99.349610
1755.000000, 99.343260
1756.000000, 99.350040
1757.000000, 99.340460
1758.000000, 99.364780
1759.000000, 99.397140
1760.000000, 99.382130
1761.000000, 99.379240
1762.000000, 99.393860
1763.000000, 99.384840
1764.000000, 99.409690
1765.000000, 99.421040
1766.000000, 99.412790
1767.000000, 99.414440
1768.000000, 99.401930
1769.000000, 99.422960
1770.000000, 99.438190
1771.000000, 99.431580
1772.000000, 99.442000
1773.000000, 99.441520
1774.000000, 99.436790
1775.000000, 99.438450
1776.000000, 99.426950
1777.000000, 99.433220
1778.000000, 99.419930
1779.000000, 99.413600
1780.000000, 99.389540
1781.000000, 99.383740
1782.000000, 99.343710
1783.000000, 99.380310
1784.000000, 99.403220
1785.000000, 99.384230
1786.000000, 99.393700
1787.000000, 99.409900
1788.000000, 99.367810
1789.000000, 99.392530
1790.000000, 99.385740
1791.000000, 99.358480
1792.000000, 99.374630
1793.000000, 99.354150
1794.000000, 99.359720
1795.000000, 99.372580
1796.000000, 99.386750
1797.000000, 99.365930
1798.000000, 99.382980
1799.000000, 99.393290
1800.000000, 99.410230
1801.000000, 99.428940
1802.000000, 99.440850
1803.000000, 99.409960
1804.000000, 99.395540
1805.000000, 99.411390
1806.000000, 99.448280
1807.000000, 99.361640
1808.000000, 99.435850
1809.000000, 99.410940
1810.000000, 99.414720
1811.000000, 99.414920
1812.000000, 99.409890
1813.000000, 99.404640
1814.000000, 99.349900
1815.000000, 99.394970
1816.000000, 99.435600
1817.000000, 99.407710
1818.000000, 99.375570
1819.000000, 99.398050
1820.000000, 99.358880
1821.000000, 99.385880
1822.000000, 99.408620
1823.000000, 99.383840
1824.000000, 99.319060
1825.000000, 99.338620
1826.000000, 99.357760
1827.000000, 99.350050
1828.000000, 99.378460
1829.000000, 99.387180
1830.000000, 99.363960
1831.000000, 99.391510
1832.000000, 99.360460
1833.000000, 99.354290
1834.000000, 99.336550
1835.000000, 99.339190
1836.000000, 99.341830
1837.000000, 99.359730
1838.000000, 99.321940
1839.000000, 99.319530
1840.000000, 99.388700
1841.000000, 99.528840
1842.000000, 99.388950
1843.000000, 99.390520
1844.000000, 99.358950
1845.000000, 99.376330
1846.000000, 99.435940
1847.000000, 99.443940
1848.000000, 99.428160
1849.000000, 99.408540
1850.000000, 99.409280
1851.000000, 99.405120
1852.000000, 99.426730
1853.000000, 99.397550
1854.000000, 99.414260
1855.000000, 99.360070
1856.000000, 99.379200
1857.000000, 99.411350
1858.000000, 99.414700
1859.000000, 99.422210
1860.000000, 99.387790
1861.000000, 99.384290
1862.000000, 99.362440
1863.000000, 99.327190
1864.000000, 99.290190
1865.000000, 99.391410
1866.000000, 99.289340
1867.000000, 99.360080
1868.000000, 99.341080
1869.000000, 99.376210
1870.000000, 99.381230
1871.000000, 99.370880
1872.000000, 99.329020
1873.000000, 99.400390
1874.000000, 99.398800
1875.000000, 99.352070
1876.000000, 99.366960
1877.000000, 99.351030
1878.000000, 99.306600
1879.000000, 99.332200
1880.000000, 99.353010
1881.000000, 99.358860
1882.000000, 99.361740
1883.000000, 99.365070
1884.000000, 99.392420
1885.000000, 99.375770
1886.000000, 99.366600
1887.000000, 99.358230
1888.000000, 99.357280
1889.000000, 99.357370
1890.000000, 99.369530
1891.000000, 99.380920
1892.000000, 99.387900
1893.000000, 99.404780
1894.000000, 99.390740
1895.000000, 99.361720
1896.000000, 99.346930
1897.000000, 99.382110
1898.000000, 99.415340
1899.000000, 99.402120
1900.000000, 99.410740
1901.000000, 99.396060
1902.000000, 99.375560
1903.000000, 99.405520
1904.000000, 99.436690
1905.000000, 99.406730
1906.000000, 99.350730
1907.000000, 99.399450
1908.000000, 99.374690
1909.000000, 99.360650
1910.000000, 99.367830
1911.000000, 99.369020
1912.000000, 99.377130
1913.000000, 99.358480
1914.000000, 99.346190
1915.000000, 99.360810
1916.000000, 99.379860
1917.000000, 99.343460
1918.000000, 99.319770
1919.000000, 99.324360
1920.000000, 99.333020
1921.000000, 99.349120
1922.000000, 99.355200
1923.000000, 99.341280
1924.000000, 99.332300
1925.000000, 99.347590
1926.000000, 99.369090
1927.000000, 99.349930
1928.000000, 99.336700
1929.000000, 99.351420
1930.000000, 99.359380
1931.000000, 99.370030
1932.000000, 99.366590
1933.000000, 99.366540
1934.000000, 99.357830
1935.000000, 99.355900
1936.000000, 99.355070
1937.000000, 99.372970
1938.000000, 99.392520
1939.000000, 99.398460
1940.000000, 99.394410
1941.000000, 99.372000
1942.000000, 99.410800
1943.000000, 99.396730
1944.000000, 99.352070
1945.000000, 99.355810
1946.000000, 99.378100
1947.000000, 99.378460
1948.000000, 99.375480
1949.000000, 99.378130
1950.000000, 99.379710
1951.000000, 99.387770
1952.000000, 99.387050
1953.000000, 99.364940
1954.000000, 99.397630
1955.000000, 99.395330
1956.000000, 99.347680
1957.000000, 99.358460
1958.000000, 99.391050
1959.000000, 99.370310
1960.000000, 99.369680
1961.000000, 99.404880
1962.000000, 99.394080
1963.000000, 99.383300
1964.000000, 99.379290
1965.000000, 99.384910
1966.000000, 99.386900
1967.000000, 99.374830
1968.000000, 99.376150
1969.000000, 99.386460
1970.000000, 99.376170
1971.000000, 99.348040
1972.000000, 99.358240
1973.000000, 99.371710
1974.000000, 99.365700
1975.000000, 99.366090
1976.000000, 99.365940
1977.000000, 99.365220
1978.000000, 99.364610
1979.000000, 99.366060
1980.000000, 99.367880
1981.000000, 99.361810
1982.000000, 99.373670
1983.000000, 99.380560
1984.000000, 99.383480
1985.000000, 99.385790
1986.000000, 99.386890
1987.000000, 99.386210
1988.000000, 99.387810
1989.000000, 99.392370
1990.000000, 99.395760
1991.000000, 99.385220
1992.000000, 99.392060
1993.000000, 99.402430
1994.000000, 99.411300
1995.000000, 99.411950
1996.000000, 99.397300
1997.000000, 99.389220
1998.000000, 99.382190
1999.000000, 99.396910
2000.000000, 99.392540
2001.000000, 99.395800
2002.000000, 99.408310
2003.000000, 99.391670
2004.000000, 99.378170
2005.000000, 99.384500
2006.000000, 99.391580
2007.000000, 99.387440
2008.000000, 99.414200
2009.000000, 99.417440
2010.000000, 99.405620
2011.000000, 99.404630
2012.000000, 99.400280
2013.000000, 99.396770
2014.000000, 99.385130
2015.000000, 99.387930
2016.000000, 99.393240
2017.000000, 99.394490
2018.000000, 99.397020
2019.000000, 99.403740
2020.000000, 99.409410
2021.000000, 99.411130
2022.000000, 99.412290
2023.000000, 99.399710
2024.000000, 99.386320
2025.000000, 99.393130
2026.000000, 99.402370
2027.000000, 99.406670
2028.000000, 99.401920
2029.000000, 99.410730
2030.000000, 99.416410
2031.000000, 99.406050
2032.000000, 99.402650
2033.000000, 99.406890
2034.000000, 99.425440
2035.000000, 99.426720
2036.000000, 99.418290
2037.000000, 99.412480
2038.000000, 99.424710
2039.000000, 99.440380
2040.000000, 99.440240
2041.000000, 99.435190
2042.000000, 99.435010
2043.000000, 99.428920
2044.000000, 99.425530
2045.000000, 99.431150
2046.000000, 99.426090
2047.000000, 99.428520
2048.000000, 99.435500
2049.000000, 99.426800
2050.000000, 99.427880
2051.000000, 99.437540
2052.000000, 99.436580
2053.000000, 99.437060
2054.000000, 99.452580
2055.000000, 99.442000
2056.000000, 99.447550
2057.000000, 99.439790
2058.000000, 99.439350
2059.000000, 99.453610
2060.000000, 99.451800
2061.000000, 99.445670
2062.000000, 99.449530
2063.000000, 99.448370
2064.000000, 99.427290
2065.000000, 99.431040
2066.000000, 99.435830
2067.000000, 99.459400
2068.000000, 99.462950
2069.000000, 99.440730
2070.000000, 99.436670
2071.000000, 99.442030
2072.000000, 99.454130
2073.000000, 99.456130
2074.000000, 99.443720
2075.000000, 99.434160
2076.000000, 99.441160
2077.000000, 99.456710
2078.000000, 99.452550
2079.000000, 99.426920
2080.000000, 99.440870
2081.000000, 99.441690
2082.000000, 99.452740
2083.000000, 99.450270
2084.000000, 99.444490
2085.000000, 99.452620
2086.000000, 99.442810
2087.000000, 99.459390
2088.000000, 99.452160
2089.000000, 99.424680
2090.000000, 99.427340
2091.000000, 99.435150
2092.000000, 99.430130
2093.000000, 99.438030
2094.000000, 99.436910
2095.000000, 99.430120
2096.000000, 99.425360
2097.000000, 99.469370
2098.000000, 99.476490
2099.000000, 99.463610
2100.000000, 99.453890
2101.000000, 99.446240
2102.000000, 99.456300
2103.000000, 99.448980
2104.000000, 99.451960
2105.000000, 99.436860
2106.000000, 99.432360
2107.000000, 99.445350
2108.000000, 99.442360
2109.000000, 99.440110
2110.000000, 99.430750
2111.000000, 99.433000
2112.000000, 99.431340
2113.000000, 99.437110
2114.000000, 99.432380
2115.000000, 99.441170
2116.000000, 99.444390
2117.000000, 99.431220
2118.000000, 99.406280
2119.000000, 99.405050
2120.000000, 99.397570
2121.000000, 99.422300
2122.000000, 99.411400
2123.000000, 99.394050
2124.000000, 99.408480
2125.000000, 99.417060
2126.000000, 99.427770
2127.000000, 99.404820
2128.000000, 99.390750
2129.000000, 99.389880
2130.000000, 99.368200
2131.000000, 99.371180
2132.000000, 99.379620
2133.000000, 99.388830
2134.000000, 99.376820
2135.000000, 99.365250
2136.000000, 99.374190
2137.000000, 99.372150
2138.000000, 99.378410
2139.000000, 99.355720
2140.000000, 99.358820
2141.000000, 99.322450
2142.000000, 99.353650
2143.000000, 99.352860
2144.000000, 99.320390
2145.000000, 99.308250
2146.000000, 99.306570
2147.000000, 99.309500
2148.000000, 99.299260
2149.000000, 99.272620
2150.000000, 99.295770
2151.000000, 99.315880
2152.000000, 99.280650
2153.000000, 99.280810
2154.000000, 99.313300
2155.000000, 99.297890
2156.000000, 99.276490
2157.000000, 99.283340
2158.000000, 99.294630
2159.000000, 99.290350
2160.000000, 99.270710
2161.000000, 99.264020
2162.000000, 99.271290
2163.000000, 99.287660
2164.000000, 99.291180
2165.000000, 99.260750
2166.000000, 99.258820
2167.000000, 99.253500
2168.000000, 99.231130
2169.000000, 99.203460
2170.000000, 99.202590
2171.000000, 99.203900
2172.000000, 99.194010
2173.000000, 99.156960
2174.000000, 99.144830
2175.000000, 99.095310
2176.000000, 99.061170
2177.000000, 99.030890
2178.000000, 99.029040
2179.000000, 98.987980
2180.000000, 98.935480
2181.000000, 98.883190
2182.000000, 98.873850
2183.000000, 98.803270
2184.000000, 98.733450
2185.000000, 98.688860
2186.000000, 98.609420
2187.000000, 98.535890
2188.000000, 98.462520
2189.000000, 98.398350
2190.000000, 98.273710
2191.000000, 98.195920
2192.000000, 98.086310
2193.000000, 98.005710
2194.000000, 97.885360
2195.000000, 97.774850
2196.000000, 97.649870
2197.000000, 97.543090
2198.000000, 97.376920
2199.000000, 97.233040
2200.000000, 97.120830
2200.900000, 96.991850
2201.710000, 96.862860
2202.510000, 96.734280
2203.320000, 96.601990
2204.120000, 96.480710
2204.920000, 96.362420
2205.730000, 96.246240
2206.530000, 96.126750
2207.330000, 95.981470
2208.140000, 95.852080
2208.940000, 95.735500
2209.740000, 95.609110
2210.550000, 95.479220
2211.350000, 95.348640
2212.150000, 95.221650
2212.960000, 95.108470
2213.760000, 94.985280
2214.560000, 94.853300
2215.370000, 94.722110
2216.170000, 94.602530
2216.980000, 94.489540
2217.780000, 94.376460
2218.580000, 94.270870
2219.390000, 94.163490
2220.190000, 94.041400
2220.990000, 93.924410
2221.800000, 93.823030
2222.600000, 93.721240
2223.400000, 93.619160
2224.210000, 93.519270
2225.010000, 93.421190
2225.810000, 93.331900
2226.620000, 93.255020
2227.420000, 93.162230
2228.220000, 93.079750
2229.030000, 93.006460
2229.830000, 92.928880
2230.640000, 92.860890
2231.440000, 92.807110
2232.240000, 92.759220
2233.050000, 92.711130
2233.850000, 92.654450
2234.650000, 92.612260
2235.460000, 92.589580
2236.260000, 92.566190
2237.060000, 92.536810
2237.870000, 92.502520
2238.670000, 92.494640
2239.470000, 92.486050
2240.280000, 92.477670
2241.080000, 92.491180
2241.890000, 92.516300
2242.690000, 92.543110
2243.490000, 92.565020
2244.300000, 92.587440
2245.100000, 92.618750
2245.900000, 92.660170
2246.710000, 92.719080
2247.510000, 92.785700
2248.310000, 92.849810
2249.120000, 92.920030
2249.920000, 93.000040
2250.720000, 93.086060
2251.530000, 93.183170
2252.330000, 93.272090
2253.130000, 93.353600
2253.940000, 93.454620
2254.740000, 93.563730
2255.550000, 93.676240
2256.350000, 93.792360
2257.150000, 93.899470
2257.960000, 94.018290
2258.760000, 94.143900
2259.560000, 94.271120
2260.370000, 94.400930
2261.170000, 94.533250
2261.970000, 94.674460
2262.780000, 94.818880
2263.580000, 94.957290
2264.380000, 95.089710
2265.190000, 95.220320
2265.990000, 95.365740
2266.800000, 95.504650
2267.600000, 95.628060
2268.400000, 95.751880
2269.210000, 95.883790
2270.010000, 96.012010
2270.810000, 96.132920
2271.620000, 96.253140
2272.420000, 96.381450
2273.220000, 96.514870
2274.030000, 96.631080
2274.830000, 96.734300
2275.630000, 96.824810
2276.440000, 96.910330
2277.240000, 96.999240
2278.040000, 97.089450
2278.850000, 97.175970
2279.650000, 97.249380
2280.460000, 97.306300
2281.260000, 97.347710
2282.060000, 97.390230
2282.870000, 97.426740
2283.670000, 97.451260
2284.470000, 97.461870
2285.280000, 97.462190
2286.080000, 97.456100
2286.880000, 97.444220
2287.690000, 97.434030
2288.490000, 97.412350
2289.290000, 97.363260
2290.100000, 97.299270
2290.900000, 97.236590
2291.700000, 97.174800
2292.510000, 97.090520
2293.310000, 96.994230
2294.120000, 96.901550
2294.920000, 96.798560
2295.720000, 96.679280
2296.530000, 96.537590
2297.330000, 96.396010
2298.130000, 96.267720
2298.940000, 96.124940
2299.740000, 95.964650
2300.540000, 95.801670
2301.350000, 95.623880
2302.150000, 95.438490
2302.950000, 95.265710
2303.760000, 95.091620
2304.560000, 94.886840
2305.370000, 94.666250
2306.170000, 94.454470
2306.970000, 94.253580
2307.780000, 94.051000
2308.580000, 93.844010
2309.380000, 93.625530
2310.190000, 93.399140
2310.990000, 93.186160
2311.790000, 92.971970
2312.600000, 92.753180
2313.400000, 92.528500
2314.200000, 92.311110
2315.010000, 92.101030
2315.810000, 91.888340
2316.610000, 91.676860
2317.420000, 91.461570
2318.220000, 91.248990
2319.030000, 91.050400
2319.830000, 90.863220
2320.630000, 90.669630
2321.440000, 90.484550
2322.240000, 90.312560
2323.040000, 90.134680
2323.850000, 89.960290
2324.650000, 89.803600
2325.450000, 89.659420
2326.260000, 89.514830
2327.060000, 89.370550
2327.860000, 89.231060
2328.670000, 89.106180
2329.470000, 88.986590
2330.270000, 88.879310
2331.080000, 88.784920
2331.880000, 88.682640
2332.690000, 88.602850
2333.490000, 88.542170
2334.290000, 88.472880
2335.100000, 88.413300
2335.900000, 88.369010
2336.700000, 88.340820
2337.510000, 88.325740
2338.310000, 88.312550
2339.110000, 88.294970
2339.920000, 88.284880
2340.720000, 88.294700
2341.520000, 88.325510
2342.330000, 88.370730
2343.130000, 88.410640
2343.940000, 88.448060
2344.740000, 88.504970
2345.540000, 88.577990
2346.350000, 88.655800
2347.150000, 88.742710
2347.950000, 88.839130
2348.760000, 88.941540
2349.560000, 89.045160
2350.360000, 89.154170
2351.170000, 89.275090
2351.970000, 89.412900
2352.770000, 89.554220
2353.580000, 89.698530
2354.380000, 89.841250
2355.180000, 89.986060
2355.990000, 90.143080
2356.790000, 90.303590
2357.600000, 90.464510
2358.400000, 90.635920
2359.200000, 90.804330
2360.010000, 90.973050
2360.810000, 91.153460
2361.610000, 91.324630
2362.420000, 91.491190
2363.220000, 91.664760
2364.020000, 91.844230
2364.830000, 92.017690
2365.630000, 92.178860
2366.430000, 92.339420
2367.240000, 92.501990
2368.040000, 92.662850
2368.850000, 92.816820
2369.650000, 92.960380
2370.450000, 93.104250
2371.260000, 93.250410
2372.060000, 93.386980
2372.860000, 93.508340
2373.670000, 93.623110
2374.470000, 93.730980
2375.270000, 93.828840
2376.080000, 93.917110
2376.880000, 94.000070
2377.680000, 94.071540
2378.490000, 94.132500
2379.290000, 94.180670
2380.090000, 94.212530
2380.900000, 94.234400
2381.700000, 94.241160
2382.510000, 94.232230
2383.310000, 94.217100
2384.110000, 94.199060
2384.920000, 94.172030
2385.720000, 94.122290
2386.520000, 94.049160
2387.330000, 93.971620
2388.130000, 93.891690
2388.930000, 93.797450
2389.740000, 93.680020
2390.540000, 93.547080
2391.340000, 93.409250
2392.150000, 93.265210
2392.950000, 93.109780
2393.750000, 92.936550
2394.560000, 92.747010
2395.360000, 92.557780
2396.170000, 92.365040
2396.970000, 92.148810
2397.770000, 91.923270
2398.580000, 91.691440
2399.380000, 91.453400
2400.180000, 91.210470
2400.990000, 90.965830
2401.790000, 90.717500
2402.590000, 90.453770
2403.400000, 90.179030
2404.200000, 89.899900
2405.000000, 89.622360
2405.810000, 89.344030
2406.610000, 89.063990
2407.420000, 88.781560
2408.220000, 88.501320
2409.020000, 88.218790
2409.830000, 87.928250
2410.630000, 87.643420
2411.430000, 87.358080
2412.240000, 87.067150
2413.040000, 86.793420
2413.840000, 86.533980
2414.650000, 86.262550
2415.450000, 85.979610
2416.250000, 85.711080
2417.060000, 85.460940
2417.860000, 85.207110
2418.660000, 84.951170
2419.470000, 84.703040
2420.270000, 84.472000
2421.080000, 84.261170
2421.880000, 84.047430
2422.680000, 83.830200
2423.490000, 83.623070
2424.290000, 83.430630
2425.090000, 83.247400
2425.900000, 83.065960
2426.700000, 82.890330
2427.500000, 82.725990
2428.310000, 82.579460
2429.110000, 82.449020
2429.910000, 82.323590
2430.720000, 82.202550
2431.520000, 82.091820
2432.320000, 81.993790
2433.130000, 81.906750
2433.930000, 81.826520
2434.740000, 81.754880
2435.540000, 81.692550
2436.340000, 81.656010
2437.150000, 81.643180
2437.950000, 81.629940
2438.750000, 81.616610
2439.560000, 81.612970
2440.360000, 81.615040
2441.160000, 81.629000
2441.970000, 81.662470
2442.770000, 81.712440
2443.570000, 81.768800
2444.380000, 81.828270
2445.180000, 81.892930
2445.990000, 81.973400
2446.790000, 82.076460
2447.590000, 82.185630
2448.400000, 82.297790
2449.200000, 82.413560
2450.000000, 82.528420
2450.810000, 82.655590
2451.610000, 82.807360
2452.410000, 82.972920
2453.220000, 83.139690
2454.020000, 83.309250
2454.820000, 83.484820
2455.630000, 83.660480
2456.430000, 83.834750
2457.230000, 84.019710
2458.040000, 84.213580
2458.840000, 84.417940
2459.650000, 84.631010
2460.450000, 84.838470
2461.250000, 85.046340
2462.060000, 85.261410
2462.860000, 85.471770
2463.660000, 85.681940
2464.470000, 85.899900
2465.270000, 86.119570
2466.070000, 86.333130
2466.880000, 86.542700
2467.680000, 86.750860
2468.480000, 86.954330
2469.290000, 87.148490
2470.090000, 87.339560
2470.890000, 87.530820
2471.700000, 87.706190
2472.500000, 87.871360
2473.310000, 88.051120
2474.110000, 88.237390
2474.910000, 88.408050
2475.720000, 88.562320
2476.520000, 88.709680
2477.320000, 88.852850
2478.130000, 88.981210
2478.930000, 89.088680
2479.730000, 89.180840
2480.540000, 89.262010
2481.340000, 89.337580
2482.140000, 89.403240
2482.950000, 89.452910
2483.750000, 89.480570
2484.560000, 89.500740
2485.360000, 89.528600
2486.160000, 89.537470
2486.970000, 89.516230
2487.770000, 89.483200
2488.570000, 89.449460
2489.380000, 89.399230
2490.180000, 89.318290
2490.980000, 89.225360
2491.790000, 89.130830
2492.590000, 89.027690
2493.390000, 88.907660
2494.200000, 88.757120
2495.000000, 88.585690
2495.800000, 88.425450
2496.610000, 88.261720
2497.410000, 88.078880
2498.220000, 87.882250
2499.020000, 87.674910
2499.820000, 87.456580
2500.630000, 87.226540
2501.430000, 86.986010
2502.230000, 86.729580
2503.040000, 86.454640
2503.840000, 86.179110
2504.640000, 85.913870
2505.450000, 85.632340
2506.250000, 85.335600
2507.050000, 85.055570
2507.860000, 84.778930
2508.660000, 84.484400
2509.470000, 84.182860
2510.270000, 83.873230
2511.070000, 83.541000
2511.880000, 83.208160
2512.680000, 82.891830
2513.480000, 82.587790
2514.290000, 82.286460
2515.090000, 81.960920
2515.890000, 81.627690
2516.700000, 81.313950
2517.500000, 81.006020
2518.300000, 80.710380
2519.110000, 80.421250
2519.910000, 80.122610
2520.710000, 79.840180
2521.520000, 79.563450
2522.320000, 79.272610
2523.130000, 78.979180
2523.930000, 78.684940
2524.730000, 78.418310
2525.540000, 78.182470
2526.340000, 77.940840
2527.140000, 77.691400
2527.950000, 77.458070
2528.750000, 77.238130
2529.550000, 77.016600
2530.360000, 76.807870
2531.160000, 76.594430
2531.960000, 76.356200
2532.770000, 76.152160
2533.570000, 75.999730
2534.370000, 75.879390
2535.180000, 75.736060
2535.980000, 75.542920
2536.790000, 75.374890
2537.590000, 75.294750
2538.390000, 75.225720
2539.200000, 75.137680
2540.000000, 75.065450
2540.800000, 75.006620
2541.610000, 74.923480
2542.410000, 74.811750
2543.210000, 74.699410
2544.020000, 74.635980
2544.820000, 74.616940
2545.620000, 74.635910
2546.430000, 74.663270
2547.230000, 74.642040
2548.040000, 74.595300
2548.840000, 74.630070
2549.640000, 74.717930
2550.450000, 74.768000
2551.250000, 74.799670
2552.050000, 74.852930
2552.860000, 74.910500
2553.660000, 75.018760
2554.460000, 75.170330
2555.270000, 75.300690
2556.070000, 75.420460
2556.870000, 75.551620
2557.680000, 75.693490
2558.480000, 75.818250
2559.280000, 75.896320
2560.090000, 75.917290
2560.890000, 75.944850
2561.700000, 76.070720
2562.500000, 76.265080
2563.300000, 76.485250
2564.110000, 76.678010
2564.910000, 76.899480
2565.710000, 77.197840
2566.520000, 77.473010
2567.320000, 77.678070
2568.120000, 77.834140
2568.930000, 77.955100
2569.730000, 78.135070
2570.530000, 78.457440
2571.340000, 78.754500
2572.140000, 78.952170
2572.940000, 79.081130
2573.750000, 79.275100
2574.550000, 79.543360
2575.360000, 79.773330
2576.160000, 79.926790
2576.960000, 80.099260
2577.770000, 80.413320
2578.570000, 80.727190
2579.370000, 80.937260
2580.180000, 81.068520
2580.980000, 81.163090
2581.780000, 81.349050
2582.590000, 81.532620
2583.390000, 81.584580
2584.190000, 81.687950
2585.000000, 82.032110
2585.800000, 82.280780
2586.610000, 82.363640
2587.410000, 82.389510
2588.210000, 82.528370
2589.020000, 82.723740
2589.820000, 82.924610
2590.620000, 83.117370
2591.430000, 83.230540
2592.230000, 83.231600
2593.030000, 83.192170
2593.840000, 83.124630
2594.640000, 82.893600
2595.440000, 82.671960
2596.250000, 82.926230
2597.050000, 83.206790
2597.850000, 83.364260
2598.660000, 83.447820
2599.460000, 83.472690
2600.270000, 83.425560
2601.070000, 83.290420
2601.870000, 83.103590
2602.680000, 82.967150
2603.480000, 82.784120
2604.280000, 82.518380
2605.090000, 82.295250
2605.890000, 82.175110
2606.690000, 82.140080
2607.500000, 82.056940
2608.300000, 81.924410
2609.100000, 81.786980
2609.910000, 81.566140
2610.710000, 81.364010
2611.520000, 81.216270
2612.320000, 80.997440
2613.120000, 80.671400
2613.930000, 80.382970
2614.730000, 80.158830
2615.530000, 79.912900
2616.340000, 79.540060
2617.140000, 78.958230
2617.940000, 78.605990
2618.750000, 78.519260
2619.550000, 78.364830
2620.350000, 77.976990
2621.160000, 77.588460
2621.960000, 77.423620
2622.760000, 77.262190
2623.570000, 77.009850
2624.370000, 76.702120
2625.180000, 76.379980
2625.980000, 75.997750
2626.780000, 75.460810
2627.590000, 75.035480
2628.390000, 74.861140
2629.190000, 74.612710
2630.000000, 74.139780
2630.800000, 73.546140
2631.600000, 73.309610
2632.410000, 73.221470
2633.210000, 73.003340
2634.010000, 72.660900
2634.820000, 72.385070
2635.620000, 72.219530
2636.420000, 72.018500
2637.230000, 71.766360
2638.030000, 71.496030
2638.840000, 71.218000
2639.640000, 70.942360
2640.440000, 70.669030
2641.250000, 70.373690
2642.050000, 70.063260
2642.850000, 69.814820
2643.660000, 69.644590
2644.460000, 69.464750
2645.260000, 69.224120
2646.070000, 68.934280
2646.870000, 68.721150
2647.670000, 68.605310
2648.480000, 68.479680
2649.280000, 68.321950
2650.090000, 68.151810
2650.890000, 67.974080
2651.690000, 67.767740
2652.500000, 67.514910
2653.300000, 67.350370
2654.100000, 67.298240
2654.910000, 67.211600
2655.710000, 67.068270
2656.510000, 66.987030
2657.320000, 66.960100
2658.120000, 66.905570
2658.920000, 66.799030
2659.730000, 66.634100
2660.530000, 66.520860
2661.330000, 66.518630
2662.140000, 66.517890
2662.940000, 66.501060
2663.750000, 66.448520
2664.550000, 66.296090
2665.350000, 66.031050
2666.160000, 65.898720
2666.960000, 65.956480
2667.760000, 66.107550
2668.570000, 66.238320
2669.370000, 66.279680
2670.170000, 66.231050
2670.980000, 66.287710
2671.780000, 66.463680
2672.580000, 66.558440
2673.390000, 66.599510
2674.190000, 66.634270
2674.990000, 66.640040
2675.800000, 66.575500
2676.600000, 66.468770
2677.410000, 66.432230
2678.210000, 66.527100
2679.010000, 66.637870
2679.820000, 66.737730
2680.620000, 66.862800
2681.420000, 66.960560
2682.230000, 66.981630
2683.030000, 66.923690
2683.830000, 66.856560
2684.640000, 66.855120
2685.440000, 66.868690
2686.240000, 66.832250
2687.050000, 66.813120
2687.850000, 66.832990
2688.660000, 66.811850
2689.460000, 66.750820
2690.260000, 66.689780
2691.070000, 66.587950
2691.870000, 66.424110
2692.670000, 66.203380
2693.480000, 65.861640
2694.280000, 65.401910
2695.080000, 65.092170
2695.890000, 64.946440
2696.690000, 64.848800
2697.490000, 64.755670
2698.300000, 64.615640
2699.100000, 64.442100
2699.900000, 64.267770
2700.710000, 64.074530
2701.510000, 63.849100
2702.320000, 63.684260
2703.120000, 63.582730
2703.920000, 63.477090
2704.730000, 63.355860
2705.530000, 63.242020
2706.330000, 63.140290
2707.140000, 63.027360
2707.940000, 62.888820
2708.740000, 62.710690
2709.550000, 62.531650
2710.350000, 62.449320
2711.150000, 62.432680
2711.960000, 62.444750
2712.760000, 62.489710
2713.570000, 62.515180
2714.370000, 62.503540
2715.170000, 62.474010
2715.980000, 62.429770
2716.780000, 62.355940
2717.580000, 62.259010
2718.390000, 62.182370
2719.190000, 62.120340
2719.990000, 61.978600
2720.800000, 61.795970
2721.600000, 61.828330
2722.400000, 61.946100
2723.210000, 61.959460
2724.010000, 61.846030
2724.810000, 61.672790
2725.620000, 61.661760
2726.420000, 61.773920
2727.230000, 61.848290
2728.030000, 61.861360
2728.830000, 61.830420
2729.640000, 61.777190
2730.440000, 61.715750
2731.240000, 61.652220
2732.050000, 61.585480
2732.850000, 61.511450
2733.650000, 61.414210
2734.460000, 61.260380
2735.260000, 61.083340
2736.060000, 60.993810
2736.870000, 60.963080
2737.670000, 60.898540
2738.470000, 60.753210
2739.280000, 60.472370
2740.080000, 60.136940
2740.890000, 59.964500
2741.690000, 59.912970
2742.490000, 59.936030
2743.300000, 59.966700
2744.100000, 59.931460
2744.900000, 59.819530
2745.710000, 59.675490
2746.510000, 59.553360
2747.310000, 59.440830
2748.120000, 59.294490
2748.920000, 59.127760
2749.720000, 58.982320
2750.530000, 58.849590
2751.330000, 58.678750
2752.140000, 58.469520
2752.940000, 58.291180
2753.740000, 58.145650
2754.550000, 57.948810
2755.350000, 57.608780
2756.150000, 57.334850
2756.960000, 57.305410
2757.760000, 57.303280
2758.560000, 57.261840
2759.370000, 57.188410
2760.170000, 57.091370
2760.970000, 56.978440
2761.780000, 56.835200
2762.580000, 56.640870
2763.380000, 56.445130
2764.190000, 56.344200
2764.990000, 56.310060
2765.800000, 56.261430
2766.600000, 56.162600
2767.400000, 56.039860
2768.210000, 55.941230
2769.010000, 55.880490
2769.810000, 55.810560
2770.620000, 55.678120
2771.420000, 55.519490
2772.220000, 55.420150
2773.030000, 55.397120
2773.830000, 55.399380
2774.630000, 55.376250
2775.440000, 55.312410
2776.240000, 55.219880
2777.040000, 55.124750
2777.850000, 55.061310
2778.650000, 55.039680
2779.460000, 55.036640
2780.260000, 55.020910
2781.060000, 54.976370
2781.870000, 54.936240
2782.670000, 54.948100
2783.470000, 55.003470
2784.280000, 55.061730
2785.080000, 55.092800
2785.880000, 55.086570
2786.690000, 55.054630
2787.490000, 55.055500
2788.290000, 55.142360
2789.100000, 55.264130
2789.900000, 55.360090
2790.710000, 55.442760
2791.510000, 55.535320
2792.310000, 55.626190
2793.120000, 55.702850
2793.920000, 55.779420
2794.720000, 55.863880
2795.530000, 55.954050
2796.330000, 56.054620
2797.130000, 56.168380
2797.940000, 56.297150
2798.740000, 56.434710
2799.540000, 56.565780
2800.350000, 56.683340
2801.150000, 56.781410
2801.950000, 56.849170
2802.760000, 56.896140
2803.560000, 56.993000
2804.370000, 57.207370
2805.170000, 57.467730
2805.970000, 57.700200
2806.780000, 57.915170
2807.580000, 58.123330
2808.380000, 58.325300
2809.190000, 58.532560
2809.990000, 58.739430
2810.790000, 58.937090
2811.600000, 59.136160
2812.400000, 59.339620
2813.200000, 59.535490
2814.010000, 59.724450
2814.810000, 59.934220
2815.610000, 60.183490
2816.420000, 60.440150
2817.220000, 60.666220
2818.030000, 60.866580
2818.830000, 61.072150
2819.630000, 61.302310
2820.440000, 61.552080
2821.240000, 61.818740
2822.040000, 62.098610
2822.850000, 62.374870
2823.650000, 62.637140
2824.450000, 62.884000
2825.260000, 63.119970
2826.060000, 63.349140
2826.860000, 63.577800
2827.670000, 63.821170
2828.470000, 64.082330
2829.280000, 64.340600
2830.080000, 64.581960
2830.880000, 64.807030
2831.690000, 65.020390
2832.490000, 65.227160
2833.290000, 65.430620
2834.100000, 65.641090
2834.900000, 65.872960
2835.700000, 66.122420
2836.510000, 66.363490
2837.310000, 66.581050
2838.110000, 66.792620
2838.920000, 67.020180
2839.720000, 67.248150
2840.520000, 67.452210
2841.330000, 67.640380
2842.130000, 67.833740
2842.940000, 68.035010
2843.740000, 68.230170
2844.540000, 68.410340
2845.350000, 68.574610
2846.150000, 68.722370
2846.950000, 68.853840
2847.760000, 68.969500
2848.560000, 69.071670
2849.360000, 69.176030
2850.170000, 69.299700
2850.970000, 69.430960
2851.770000, 69.543130
2852.580000, 69.625390
2853.380000, 69.684860
2854.190000, 69.739920
2854.990000, 69.806390
2855.790000, 69.880760
2856.600000, 69.950120
2857.400000, 70.008190
2858.200000, 70.049550
2859.010000, 70.066720
2859.810000, 70.061280
2860.610000, 70.049050
2861.420000, 70.041510
2862.220000, 70.031680
2863.020000, 70.007540
2863.830000, 69.967510
2864.630000, 69.917780
2865.430000, 69.861140
2866.240000, 69.794110
2867.040000, 69.717670
2867.850000, 69.637240
2868.650000, 69.549000
2869.450000, 69.447070
2870.260000, 69.332930
2871.060000, 69.207100
2871.860000, 69.076960
2872.670000, 68.959930
2873.470000, 68.854790
2874.270000, 68.740160
2875.080000, 68.604130
2875.880000, 68.450290
2876.680000, 68.284660
2877.490000, 68.111420
2878.290000, 67.937890
2879.090000, 67.769250
2879.900000, 67.603020
2880.700000, 67.435680
2881.510000, 67.265450
2882.310000, 67.090110
2883.110000, 66.905380
2883.920000, 66.706650
2884.720000, 66.498610
2885.520000, 66.293380
2886.330000, 66.091840
2887.130000, 65.883310
2887.930000, 65.667070
2888.740000, 65.460940
2889.540000, 65.273500
2890.340000, 65.088370
2891.150000, 64.889030
2891.950000, 64.679000
2892.760000, 64.469760
2893.560000, 64.266330
2894.360000, 64.067400
2895.170000, 63.871560
2895.970000, 63.676930
2896.770000, 63.481190
2897.580000, 63.284160
2898.380000, 63.088520
2899.180000, 62.892690
2899.990000, 62.687250
2900.790000, 62.471220
2901.590000, 62.270480
2902.400000, 62.100850
2903.200000, 61.942810
2904.000000, 61.776880
2904.810000, 61.605050
2905.610000, 61.440510
2906.420000, 61.289080
2907.220000, 61.145440
2908.020000, 61.004410
2908.830000, 60.865170
2909.630000, 60.728440
2910.430000, 60.595000
2911.240000, 60.463370
2912.040000, 60.329230
2912.840000, 60.191600
2913.650000, 60.057970
2914.450000, 59.937130
2915.250000, 59.828300
2916.060000, 59.722960
2916.860000, 59.616930
2917.660000, 59.513890
2918.470000, 59.418760
2919.270000, 59.330420
2920.080000, 59.244290
2920.880000, 59.158550
2921.680000, 59.074520
2922.490000, 58.995480
2923.290000, 58.925750
2924.090000, 58.869520
2924.900000, 58.827580
2925.700000, 58.794850
2926.500000, 58.765410
2927.310000, 58.738680
2928.110000, 58.717740
2928.910000, 58.704910
2929.720000, 58.698770
2930.520000, 58.695640
2931.330000, 58.691300
2932.130000, 58.686470
2932.930000, 58.686140
2933.740000, 58.692800
2934.540000, 58.707170
2935.340000, 58.729330
2936.150000, 58.757100
2936.950000, 58.789260
2937.750000, 58.829430
2938.560000, 58.878690
2939.360000, 58.933560
2940.160000, 58.991220
2940.970000, 59.051290
2941.770000, 59.110950
2942.570000, 59.167720
2943.380000, 59.227290
2944.180000, 59.300150
2944.990000, 59.388320
2945.790000, 59.482180
2946.590000, 59.574750
2947.400000, 59.670310
2948.200000, 59.775180
2949.000000, 59.886040
2949.810000, 59.995510
2950.610000, 60.103670
2951.410000, 60.215140
2952.220000, 60.330600
2953.020000, 60.448570
2953.820000, 60.570840
2954.630000, 60.702000
2955.430000, 60.842070
2956.240000, 60.987530
2957.040000, 61.134900
2957.840000, 61.281160
2958.650000, 61.425730
2959.450000, 61.572590
2960.250000, 61.726560
2961.060000, 61.886320
2961.860000, 62.046290
2962.660000, 62.203360
2963.470000, 62.359820
2964.270000, 62.520690
2965.070000, 62.689150
2965.880000, 62.863820
2966.680000, 63.039080
2967.480000, 63.209050
2968.290000, 63.372210
2969.090000, 63.530280
2969.900000, 63.686240
2970.700000, 63.845510
2971.500000, 64.012570
2972.310000, 64.184540
2973.110000, 64.354810
2973.910000, 64.522070
2974.720000, 64.689040
2975.520000, 64.855700
2976.320000, 65.019170
2977.130000, 65.176930
2977.930000, 65.328400
2978.730000, 65.475760
2979.540000, 65.623830
2980.340000, 65.775490
2981.140000, 65.929160
2981.950000, 66.081020
2982.750000, 66.230590
2983.560000, 66.377760
2984.360000, 66.518520
2985.160000, 66.649590
2985.970000, 66.771050
2986.770000, 66.885920
2987.570000, 66.998380
2988.380000, 67.110850
2989.180000, 67.222410
2989.980000, 67.331180
2990.790000, 67.434340
2991.590000, 67.528810
2992.390000, 67.613580
2993.200000, 67.693240
2994.000000, 67.772710
2994.810000, 67.847670
2995.610000, 67.908640
2996.410000, 67.956300
2997.220000, 67.996670
2998.020000, 68.032430
2998.820000, 68.064800
2999.630000, 68.094760
3000.430000, 68.120830
3001.230000, 68.139890
3002.040000, 68.151060
3002.840000, 68.156330
3003.640000, 68.156990
3004.450000, 68.152860
3005.250000, 68.143820
3006.050000, 68.130690
3006.860000, 68.110150
3007.660000, 68.078220
3008.470000, 68.035580
3009.270000, 67.984550
3010.070000, 67.926210
3010.880000, 67.861580
3011.680000, 67.792250
3012.480000, 67.718110
3013.290000, 67.637080
3014.090000, 67.548940
3014.890000, 67.457310
3015.700000, 67.365170
3016.500000, 67.270440
3017.300000, 67.168800
3018.110000, 67.060070
3018.910000, 66.948430
3019.710000, 66.837000
3020.520000, 66.722560
3021.320000, 66.599930
3022.130000, 66.468500
3022.930000, 66.333260
3023.730000, 66.198030
3024.540000, 66.060090
3025.340000, 65.914560
3026.140000, 65.758720
3026.950000, 65.593690
3027.750000, 65.424750
3028.550000, 65.257620
3029.360000, 65.093580
3030.160000, 64.929950
3030.960000, 64.763710
3031.770000, 64.594580
3032.570000, 64.424050
3033.380000, 64.254210
3034.180000, 64.084880
3034.980000, 63.911740
3035.790000, 63.733710
3036.590000, 63.554770
3037.390000, 63.378240
3038.200000, 63.202100
3039.000000, 63.022770
3039.800000, 62.839330
3040.610000, 62.656000
3041.410000, 62.477970
3042.210000, 62.307330
3043.020000, 62.139200
3043.820000, 61.966660
3044.620000, 61.790530
3045.430000, 61.616390
3046.230000, 61.448060
3047.040000, 61.283720
3047.840000, 61.118490
3048.640000, 60.949850
3049.450000, 60.781820
3050.250000, 60.620280
3051.050000, 60.466250
3051.860000, 60.318020
3052.660000, 60.173780
3053.460000, 60.028650
3054.270000, 59.881010
3055.070000, 59.735580
3055.870000, 59.599640
3056.680000, 59.473910
3057.480000, 59.349670
3058.280000, 59.220640
3059.090000, 59.089500
3059.890000, 58.958270
3060.700000, 58.829740
3061.500000, 58.707000
3062.300000, 58.591170
3063.110000, 58.480630
3063.910000, 58.373200
3064.710000, 58.269360
3065.520000, 58.171830
3066.320000, 58.078890
3067.120000, 57.990360
3067.930000, 57.907320
3068.730000, 57.829690
3069.530000, 57.757250
3070.340000, 57.689520
3071.140000, 57.624790
3071.950000, 57.558550
3072.750000, 57.490020
3073.550000, 57.426480
3074.360000, 57.372150
3075.160000, 57.325710
3075.960000, 57.284680
3076.770000, 57.247940
3077.570000, 57.216810
3078.370000, 57.192970
3079.180000, 57.174340
3079.980000, 57.152800
3080.780000, 57.126970
3081.590000, 57.103040
3082.390000, 57.088100
3083.190000, 57.084670
3084.000000, 57.089030
3084.800000, 57.095700
3085.610000, 57.103660
3086.410000, 57.115430
3087.210000, 57.132890
3088.020000, 57.156460
3088.820000, 57.185420
3089.620000, 57.219290
3090.430000, 57.258260
3091.230000, 57.302820
3092.030000, 57.352890
3092.840000, 57.405050
3093.640000, 57.455820
3094.440000, 57.504080
3095.250000, 57.551750
3096.050000, 57.602410
3096.860000, 57.659680
3097.660000, 57.724740
3098.460000, 57.798810
3099.270000, 57.880870
3100.070000, 57.968440
3100.870000, 58.057010
3101.680000, 58.144770
3102.480000, 58.232640
3103.280000, 58.324200
3104.090000, 58.422570
3104.890000, 58.527430
3105.690000, 58.637200
3106.500000, 58.750460
3107.300000, 58.864430
3108.100000, 58.976990
3108.910000, 59.088060
3109.710000, 59.201220
3110.520000, 59.322990
3111.320000, 59.453460
3112.120000, 59.589620
3112.930000, 59.726590
3113.730000, 59.860750
3114.530000, 59.991820
3115.340000, 60.123080
3116.140000, 60.262250
3116.940000, 60.408610
3117.750000, 60.558380
3118.550000, 60.708240
3119.350000, 60.856710
3120.160000, 61.003980
3120.960000, 61.151540
3121.760000, 61.299410
3122.570000, 61.445770
3123.370000, 61.592040
3124.180000, 61.740000
3124.980000, 61.889670
3125.780000, 62.038530
3126.590000, 62.183900
3127.390000, 62.330660
3128.190000, 62.483130
3129.000000, 62.639790
3129.800000, 62.798160
3130.600000, 62.956330
3131.410000, 63.113390
3132.210000, 63.268160
3133.010000, 63.418820
3133.820000, 63.567090
3134.620000, 63.713650
3135.430000, 63.857920
3136.230000, 63.998380
3137.030000, 64.134250
3137.840000, 64.266710
3138.640000, 64.399680
3139.440000, 64.534950
3140.250000, 64.671110
3141.050000, 64.805480
3141.850000, 64.935040
3142.660000, 65.059610
3143.460000, 65.181170
3144.260000, 65.297240
3145.070000, 65.405800
3145.870000, 65.508570
3146.670000, 65.609430
3147.480000, 65.712200
3148.280000, 65.813660
3149.090000, 65.910130
3149.890000, 66.002000
3150.690000, 66.089960
3151.500000, 66.174030
3152.300000, 66.253590
3153.100000, 66.325860
3153.910000, 66.391820
3154.710000, 66.453890
3155.510000, 66.513150
3156.320000, 66.569720
3157.120000, 66.622380
3157.920000, 66.669250
3158.730000, 66.710410
3159.530000, 66.745880
3160.330000, 66.774850
3161.140000, 66.797410
3161.940000, 66.814380
3162.750000, 66.826340
3163.550000, 66.831910
3164.350000, 66.830670
3165.160000, 66.823640
3165.960000, 66.812400
3166.760000, 66.798370
3167.570000, 66.782330
3168.370000, 66.764700
3169.170000, 66.743670
3169.980000, 66.716430
3170.780000, 66.680500
3171.580000, 66.634660
3172.390000, 66.579030
3173.190000, 66.516490
3174.000000, 66.448760
3174.800000, 66.377020
3175.600000, 66.302190
3176.410000, 66.225050
3177.210000, 66.143820
3178.010000, 66.058980
3178.820000, 65.970950
3179.620000, 65.879320
3180.420000, 65.783180
3181.230000, 65.680750
3182.030000, 65.574410
3182.830000, 65.468880
3183.640000, 65.364440
3184.440000, 65.259110
3185.240000, 65.149670
3186.050000, 65.031540
3186.850000, 64.904300
3187.660000, 64.770270
3188.460000, 64.631840
3189.260000, 64.491400
3190.070000, 64.351270
3190.870000, 64.211130
3191.670000, 64.070800
3192.480000, 63.932560
3193.280000, 63.797430
3194.080000, 63.664490
3194.890000, 63.527360
3195.690000, 63.380320
3196.490000, 63.225890
3197.300000, 63.067550
3198.100000, 62.909520
3198.910000, 62.756290
3199.710000, 62.610550
3200.510000, 62.466120
3201.320000, 62.319380
3202.120000, 62.169250
3202.920000, 62.016810
3203.730000, 61.865780
3204.530000, 61.715040
3205.330000, 61.563110
3206.140000, 61.410870
3206.940000, 61.259740
3207.740000, 61.111800
3208.550000, 60.964070
3209.350000, 60.815340
3210.150000, 60.667000
3210.960000, 60.520670
3211.760000, 60.376830
3212.570000, 60.232600
3213.370000, 60.088060
3214.170000, 59.945230
3214.980000, 59.805990
3215.780000, 59.671460
3216.580000, 59.539120
3217.390000, 59.404890
3218.190000, 59.269860
3218.990000, 59.135820
3219.800000, 59.005290
3220.600000, 58.879550
3221.400000, 58.756120
3222.210000, 58.635980
3223.010000, 58.519550
3223.810000, 58.407110
3224.620000, 58.298280
3225.420000, 58.192140
3226.230000, 58.088710
3227.030000, 57.987270
3227.830000, 57.886840
3228.640000, 57.785310
3229.440000, 57.684370
3230.240000, 57.587940
3231.050000, 57.498200
3231.850000, 57.415770
3232.650000, 57.338330
3233.460000, 57.264100
3234.260000, 57.193560
3235.060000, 57.126130
3235.870000, 57.059790
3236.670000, 56.992160
3237.480000, 56.926430
3238.280000, 56.864590
3239.080000, 56.807760
3239.890000, 56.756020
3240.690000, 56.708590
3241.490000, 56.663450
3242.300000, 56.620620
3243.100000, 56.580380
3243.900000, 56.543650
3244.710000, 56.512510
3245.510000, 56.484480
3246.310000, 56.459040
3247.120000, 56.436010
3247.920000, 56.418280
3248.720000, 56.407140
3249.530000, 56.398510
3250.330000, 56.390670
3251.140000, 56.383140
3251.940000, 56.379500
3252.740000, 56.381270
3253.550000, 56.387430
3254.350000, 56.398000
3255.150000, 56.412960
3255.960000, 56.434330
3256.760000, 56.458990
3257.560000, 56.486460
3258.370000, 56.516230
3259.170000, 56.548090
3259.970000, 56.581860
3260.780000, 56.617520
3261.580000, 56.655590
3262.380000, 56.696850
3263.190000, 56.744820
3263.990000, 56.800280
3264.800000, 56.860650
3265.600000, 56.923510
3266.400000, 56.985980
3267.210000, 57.047750
3268.010000, 57.112310
3268.810000, 57.181280
3269.620000, 57.255340
3270.420000, 57.334610
3271.220000, 57.417070
3272.030000, 57.502740
3272.830000, 57.591400
3273.630000, 57.682270
3274.440000, 57.774730
3275.240000, 57.870700
3276.050000, 57.970560
3276.850000, 58.074230
3277.650000, 58.178100
3278.460000, 58.277860
3279.260000, 58.376730
3280.060000, 58.478290
3280.870000, 58.587660
3281.670000, 58.709420
3282.470000, 58.835290
3283.280000, 58.961950
3284.080000, 59.086620
3284.880000, 59.208180
3285.690000, 59.331050
3286.490000, 59.456510
3287.290000, 59.584580
3288.100000, 59.714250
3288.900000, 59.843710
3289.710000, 59.973180
3290.510000, 60.103040
3291.310000, 60.234210
3292.120000, 60.369270
3292.920000, 60.507040
3293.720000, 60.647100
3294.530000, 60.788570
3295.330000, 60.930230
3296.130000, 61.068000
3296.940000, 61.201570
3297.740000, 61.332430
3298.540000, 61.465500
3299.350000, 61.608760
3300.150000, 61.756730
3300.960000, 61.905990
3301.760000, 62.051960
3302.560000, 62.192220
3303.370000, 62.332190
3304.170000, 62.473450
3304.970000, 62.617720
3305.780000, 62.764280
3306.580000, 62.907750
3307.380000, 63.047320
3308.190000, 63.182880
3308.990000, 63.317350
3309.790000, 63.454810
3310.600000, 63.593180
3311.400000, 63.730940
3312.200000, 63.863710
3313.010000, 63.991170
3313.810000, 64.116540
3314.620000, 64.240800
3315.420000, 64.365070
3316.220000, 64.488740
3317.030000, 64.610600
3317.830000, 64.729470
3318.630000, 64.842930
3319.440000, 64.950000
3320.240000, 65.054760
3321.040000, 65.158430
3321.850000, 65.262190
3322.650000, 65.363460
3323.450000, 65.459920
3324.260000, 65.551190
3325.060000, 65.637150
3325.860000, 65.719220
3326.670000, 65.799690
3327.470000, 65.878850
3328.280000, 65.956620
3329.080000, 66.030980
3329.880000, 66.100950
3330.690000, 66.166710
3331.490000, 66.228480
3332.290000, 66.286540
3333.100000, 66.341810
3333.900000, 66.393670
3334.700000, 66.441440
3335.510000, 66.481000
3336.310000, 66.513870
3337.110000, 66.540440
3337.920000, 66.561300
3338.720000, 66.579170
3339.530000, 66.597930
3340.330000, 66.616800
3341.130000, 66.634560
3341.940000, 66.643830
3342.740000, 66.644190
3343.540000, 66.635760
3344.350000, 66.618120
3345.150000, 66.593090
3345.950000, 66.566460
3346.760000, 66.538620
3347.560000, 66.509990
3348.360000, 66.478750
3349.170000, 66.444920
3349.970000, 66.408280
3350.770000, 66.368650
3351.580000, 66.324910
3352.380000, 66.277280
3353.190000, 66.225440
3353.990000, 66.167710
3354.790000, 66.104770
3355.600000, 66.038540
3356.400000, 65.969010
3357.200000, 65.894570
3358.010000, 65.815240
3358.810000, 65.732200
3359.610000, 65.645670
3360.420000, 65.554130
3361.220000, 65.457800
3362.020000, 65.357560
3362.830000, 65.253730
3363.630000, 65.145390
3364.430000, 65.034660
3365.240000, 64.922230
3366.040000, 64.808890
3366.850000, 64.694560
3367.650000, 64.578120
3368.450000, 64.458990
3369.260000, 64.335550
3370.060000, 64.208620
3370.860000, 64.080780
3371.670000, 63.952450
3372.470000, 63.823110
3373.270000, 63.691580
3374.080000, 63.558640
3374.880000, 63.424310
3375.680000, 63.288080
3376.490000, 63.149440
3377.290000, 63.008910
3378.100000, 62.867170
3378.900000, 62.726740
3379.700000, 62.586900
3380.510000, 62.447170
3381.310000, 62.306330
3382.110000, 62.164500
3382.920000, 62.022460
3383.720000, 61.880830
3384.520000, 61.740790
3385.330000, 61.601760
3386.130000, 61.462430
3386.930000, 61.321490
3387.740000, 61.176060
3388.540000, 61.030320
3389.340000, 60.885490
3390.150000, 60.744350
3390.950000, 60.605420
3391.760000, 60.466880
3392.560000, 60.328150
3393.360000, 60.188110
3394.170000, 60.047780
3394.970000, 59.908050
3395.770000, 59.770110
3396.580000, 59.634980
3397.380000, 59.499740
3398.180000, 59.363810
3398.990000, 59.225470
3399.790000, 59.087340
3400.590000, 58.951200
3401.400000, 58.818370
3402.200000, 58.691230
3403.000000, 58.565700
3403.810000, 58.441460
3404.610000, 58.318230
3405.420000, 58.197900
3406.220000, 58.080060
3407.020000, 57.965130
3407.830000, 57.854790
3408.630000, 57.747260
3409.430000, 57.642020
3410.240000, 57.539090
3411.040000, 57.438750
3411.840000, 57.340220
3412.650000, 57.243580
3413.450000, 57.147850
3414.250000, 57.050910
3415.060000, 56.953080
3415.860000, 56.854850
3416.670000, 56.760910
3417.470000, 56.670980
3418.270000, 56.585540
3419.080000, 56.504810
3419.880000, 56.426370
3420.680000, 56.350440
3421.490000, 56.277900
3422.290000, 56.209170
3423.090000, 56.143830
3423.900000, 56.082100
3424.700000, 56.026870
3425.500000, 55.973330
3426.310000, 55.920600
3427.110000, 55.866960
3427.910000, 55.814930
3428.720000, 55.765590
3429.520000, 55.719960
3430.330000, 55.679720
3431.130000, 55.640990
3431.930000, 55.603350
3432.740000, 55.566220
3433.540000, 55.530380
3434.340000, 55.496450
3435.150000, 55.465320
3435.950000, 55.438880
3436.750000, 55.414650
3437.560000, 55.392410
3438.360000, 55.372580
3439.160000, 55.355640
3439.970000, 55.341710
3440.770000, 55.332570
3441.580000, 55.327340
3442.380000, 55.323600
3443.180000, 55.320670
3443.990000, 55.317940
3444.790000, 55.317000
3445.590000, 55.318170
3446.400000, 55.324130
3447.200000, 55.333400
3448.000000, 55.345260
3448.810000, 55.360630
3449.610000, 55.381390
3450.410000, 55.405460
3451.220000, 55.432420
3452.020000, 55.461890
3452.820000, 55.492050
3453.630000, 55.522920
3454.430000, 55.555090
3455.240000, 55.589250
3456.040000, 55.625320
3456.840000, 55.664080
3457.650000, 55.705250
3458.450000, 55.747710
3459.250000, 55.791380
3460.060000, 55.837940
3460.860000, 55.887610
3461.660000, 55.940570
3462.470000, 55.999040
3463.270000, 56.059300
3464.070000, 56.120470
3464.880000, 56.181440
3465.680000, 56.243000
3466.480000, 56.305970
3467.290000, 56.371630
3468.090000, 56.441300
3468.900000, 56.512560
3469.700000, 56.585430
3470.500000, 56.659890
3471.310000, 56.735060
3472.110000, 56.810820
3472.910000, 56.887890
3473.720000, 56.967360
3474.520000, 57.049120
3475.320000, 57.134990
3476.130000, 57.224550
3476.930000, 57.316520
3477.730000, 57.410980
3478.540000, 57.506850
3479.340000, 57.602010
3480.150000, 57.695980
3480.950000, 57.786140
3481.750000, 57.875010
3482.560000, 57.962670
3483.360000, 58.050540
3484.160000, 58.139510
3484.970000, 58.229770
3485.770000, 58.322640
3486.570000, 58.418400
3487.380000, 58.516470
3488.180000, 58.617730
3488.980000, 58.719700
3489.790000, 58.821760
3490.590000, 58.923530
3491.390000, 59.025990
3492.200000, 59.128960
3493.000000, 59.232630
3493.810000, 59.335790
3494.610000, 59.438560
3495.410000, 59.541020
3496.220000, 59.642590
3497.020000, 59.742950
3497.820000, 59.842020
3498.630000, 59.938780
3499.430000, 60.035150
3500.230000, 60.131210
3501.040000, 60.227280
3501.840000, 60.322740
3502.640000, 60.417610
3503.450000, 60.511180
3504.250000, 60.603540
3505.050000, 60.695510
3505.860000, 60.787870
3506.660000, 60.881240
3507.470000, 60.974100
3508.270000, 61.065170
3509.070000, 61.152230
3509.880000, 61.237800
3510.680000, 61.322160
3511.480000, 61.404530
3512.290000, 61.483590
3513.090000, 61.557560
3513.890000, 61.623830
3514.700000, 61.687690
3515.500000, 61.749560
3516.300000, 61.811620
3517.110000, 61.873890
3517.910000, 61.936250
3518.720000, 61.997720
3519.520000, 62.057880
3520.320000, 62.116750
3521.130000, 62.170410
3521.930000, 62.220280
3522.730000, 62.266150
3523.540000, 62.304510
3524.340000, 62.340180
3525.140000, 62.373440
3525.950000, 62.405010
3526.750000, 62.435370
3527.550000, 62.464540
3528.360000, 62.488000
3529.160000, 62.506970
3529.960000, 62.521830
3530.770000, 62.530300
3531.570000, 62.536460
3532.380000, 62.540730
3533.180000, 62.542800
3533.980000, 62.543460
3534.790000, 62.542630
3535.590000, 62.537090
3536.390000, 62.527260
3537.200000, 62.513720
3538.000000, 62.493790
3538.800000, 62.471450
3539.610000, 62.447020
3540.410000, 62.418380
3541.210000, 62.385650
3542.020000, 62.349320
3542.820000, 62.305780
3543.630000, 62.260350
3544.430000, 62.213410
3545.230000, 62.165780
3546.040000, 62.116040
3546.840000, 62.064410
3547.640000, 62.004270
3548.450000, 61.939940
3549.250000, 61.871200
3550.050000, 61.797170
3550.860000, 61.722130
3551.660000, 61.645900
3552.460000, 61.567970
3553.270000, 61.487930
3554.070000, 61.405300
3554.870000, 61.316060
3555.680000, 61.223830
3556.480000, 61.128390
3557.290000, 61.029460
3558.090000, 60.928420
3558.890000, 60.824590
3559.700000, 60.715650
3560.500000, 60.604220
3561.300000, 60.489480
3562.110000, 60.370950
3562.910000, 60.250820
3563.710000, 60.128280
3564.520000, 60.004650
3565.320000, 59.880410
3566.120000, 59.755380
3566.930000, 59.629140
3567.730000, 59.501910
3568.530000, 59.372770
3569.340000, 59.241440
3570.140000, 59.108800
3570.950000, 58.974070
3571.750000, 58.838840
3572.550000, 58.703100
3573.360000, 58.564570
3574.160000, 58.422730
3574.960000, 58.277900
3575.770000, 58.128060
3576.570000, 57.977630
3577.370000, 57.826490
3578.180000, 57.675560
3578.980000, 57.525120
3579.780000, 57.375090
3580.590000, 57.225450
3581.390000, 57.075620
3582.200000, 56.925090
3583.000000, 56.773650
3583.800000, 56.621720
3584.610000, 56.469180
3585.410000, 56.315250
3586.210000, 56.160510
3587.020000, 56.003880
3587.820000, 55.846840
3588.620000, 55.689810
3589.430000, 55.533870
3590.230000, 55.378340
3591.030000, 55.223300
3591.840000, 55.068670
3592.640000, 54.914540
3593.440000, 54.761000
3594.250000, 54.608170
3595.050000, 54.455430
3595.860000, 54.302700
3596.660000, 54.150160
3597.460000, 53.998130
3598.270000, 53.847690
3599.070000, 53.699260
3599.870000, 53.552020
3600.680000, 53.407090
3601.480000, 53.263560
3602.280000, 53.120920
3603.090000, 52.978590
3603.890000, 52.835750
3604.690000, 52.692320
3605.500000, 52.548780
3606.300000, 52.405750
3607.100000, 52.263810
3607.910000, 52.123780
3608.710000, 51.984740
3609.520000, 51.847110
3610.320000, 51.710070
3611.120000, 51.573740
3611.930000, 51.439610
3612.730000, 51.307570
3613.530000, 51.177340
3614.340000, 51.051000
3615.140000, 50.926270
3615.940000, 50.803830
3616.750000, 50.684200
3617.550000, 50.565460
3618.350000, 50.447730
3619.160000, 50.329690
3619.960000, 50.211460
3620.770000, 50.093430
3621.570000, 49.976790
3622.370000, 49.861160
3623.180000, 49.749020
3623.980000, 49.638790
3624.780000, 49.531450
3625.590000, 49.427120
3626.390000, 49.323580
3627.190000, 49.220750
3628.000000, 49.118010
3628.800000, 49.015580
3629.600000, 48.915740
3630.410000, 48.817710
3631.210000, 48.721580
3632.010000, 48.628140
3632.820000, 48.536310
3633.620000, 48.447070
3634.430000, 48.361840
3635.230000, 48.278500
3636.030000, 48.197870
3636.840000, 48.117430
3637.640000, 48.037300
3638.440000, 47.957260
3639.250000, 47.877730
3640.050000, 47.798790
3640.850000, 47.721760
3641.660000, 47.646130
3642.460000, 47.573790
3643.260000, 47.504160
3644.070000, 47.436220
3644.870000, 47.371390
3645.670000, 47.308550
3646.480000, 47.248120
3647.280000, 47.191480
3648.090000, 47.135850
3648.890000, 47.081110
3649.690000, 47.026080
3650.500000, 46.971150
3651.300000, 46.919210
3652.100000, 46.869680
3652.910000, 46.823040
3653.710000, 46.778910
3654.510000, 46.735570
3655.320000, 46.693440
3656.120000, 46.653700
3656.920000, 46.615370
3657.730000, 46.581030
3658.530000, 46.547600
3659.340000, 46.515460
3660.140000, 46.484730
3660.940000, 46.455000
3661.750000, 46.427360
3662.550000, 46.402030
3663.350000, 46.378090
3664.160000, 46.357860
3664.960000, 46.338820
3665.760000, 46.321690
3666.570000, 46.306250
3667.370000, 46.291820
3668.170000, 46.279480
3668.980000, 46.268150
3669.780000, 46.257520
3670.580000, 46.247980
3671.390000, 46.239350
3672.190000, 46.232510
3673.000000, 46.228380
3673.800000, 46.225740
3674.600000, 46.225910
3675.410000, 46.227370
3676.210000, 46.230140
3677.010000, 46.235400
3677.820000, 46.241770
3678.620000, 46.250130
3679.420000, 46.259700
3680.230000, 46.270070
3681.030000, 46.282530
3681.830000, 46.296100
3682.640000, 46.311760
3683.440000, 46.330130
3684.250000, 46.349890
3685.050000, 46.373260
3685.850000, 46.398020
3686.660000, 46.424490
3687.460000, 46.451750
3688.260000, 46.479320
3689.070000, 46.507080
3689.870000, 46.536350
3690.670000, 46.566620
3691.480000, 46.600880
3692.280000, 46.636450
3693.080000, 46.674410
3693.890000, 46.713880
3694.690000, 46.754040
3695.490000, 46.796610
3696.300000, 46.839970
3697.100000, 46.884640
3697.910000, 46.930700
3698.710000, 46.977270
3699.510000, 47.024840
3700.320000, 47.072500
3701.120000, 47.120370
3701.920000, 47.168530
3702.730000, 47.217100
3703.530000, 47.267160
3704.330000, 47.319030
3705.140000, 47.372390
3705.940000, 47.429460
3706.740000, 47.487520
3707.550000, 47.547590
3708.350000, 47.608050
3709.150000, 47.668620
3709.960000, 47.729290
3710.760000, 47.790350
3711.570000, 47.852620
3712.370000, 47.916180
3713.170000, 47.980350
3713.980000, 48.045010
3714.780000, 48.109780
3715.580000, 48.174640
3716.390000, 48.240210
3717.190000, 48.305970
3717.990000, 48.372740
3718.800000, 48.439510
3719.600000, 48.506170
3720.400000, 48.572740
3721.210000, 48.639300
3722.010000, 48.706670
3722.820000, 48.774330
3723.620000, 48.842400
3724.420000, 48.910360
3725.230000, 48.978230
3726.030000, 49.046090
3726.830000, 49.114260
3727.640000, 49.182920
3728.440000, 49.252890
3729.240000, 49.323360
3730.050000, 49.394220
3730.850000, 49.464390
3731.650000, 49.533450
3732.460000, 49.600920
3733.260000, 49.667580
3734.060000, 49.732350
3734.870000, 49.796410
3735.670000, 49.859580
3736.480000, 49.922140
3737.280000, 49.984510
3738.080000, 50.046170
3738.890000, 50.107240
3739.690000, 50.167110
3740.490000, 50.224970
3741.300000, 50.281840
3742.100000, 50.334400
3742.900000, 50.385770
3743.710000, 50.434030
3744.510000, 50.481200
3745.310000, 50.527560
3746.120000, 50.574830
3746.920000, 50.622290
3747.720000, 50.670460
3748.530000, 50.717830
3749.330000, 50.764490
3750.140000, 50.808460
3750.940000, 50.851620
3751.740000, 50.892490
3752.550000, 50.932050
3753.350000, 50.970120
3754.150000, 51.004980
3754.960000, 51.038750
3755.760000, 51.069110
3756.560000, 51.098280
3757.370000, 51.125840
3758.170000, 51.151010
3758.970000, 51.175180
3759.780000, 51.195840
3760.580000, 51.215510
3761.390000, 51.233070
3762.190000, 51.248040
3762.990000, 51.261600
3763.800000, 51.270070
3764.600000, 51.276930
3765.400000, 51.279800
3766.210000, 51.280960
3767.010000, 51.280730
3767.810000, 51.278390
3768.620000, 51.275460
3769.420000, 51.270130
3770.220000, 51.263490
3771.030000, 51.255460
3771.830000, 51.245320
3772.630000, 51.234390
3773.440000, 51.218550
3774.240000, 51.200720
3775.050000, 51.178180
3775.850000, 51.152450
3776.650000, 51.124610
3777.460000, 51.094380
3778.260000, 51.063550
3779.060000, 51.031310
3779.870000, 50.997780
3780.670000, 50.962840
3781.470000, 50.924310
3782.280000, 50.884370
3783.080000, 50.839840
3783.880000, 50.794500
3784.690000, 50.747870
3785.490000, 50.700630
3786.300000, 50.653000
3787.100000, 50.602660
3787.900000, 50.551230
3788.710000, 50.495400
3789.510000, 50.437560
3790.310000, 50.377130
3791.120000, 50.314590
3791.920000, 50.251260
3792.720000, 50.184920
3793.530000, 50.117790
3794.330000, 50.048250
3795.130000, 49.977020
3795.940000, 49.904280
3796.740000, 49.828450
3797.540000, 49.751620
3798.350000, 49.671980
3799.150000, 49.592150
3799.960000, 49.511810
3800.760000, 49.431880
3801.560000, 49.352040
3802.370000, 49.270910
3803.170000, 49.189070
3803.970000, 49.104640
3804.780000, 49.019100
3805.580000, 48.931970
3806.380000, 48.843430
3807.190000, 48.754300
3807.990000, 48.662300
3808.790000, 48.569700
3809.600000, 48.475200
3810.400000, 48.380400
3811.200000, 48.285100
3812.010000, 48.190100
3812.810000, 48.095200
3813.620000, 47.999700
3814.420000, 47.903800
3815.220000, 47.806300
3816.030000, 47.707700
3816.830000, 47.607800
3817.630000, 47.507300
3818.440000, 47.406500
3819.240000, 47.307000
3820.040000, 47.207800
3820.850000, 47.110000
3821.650000, 47.012200
3822.450000, 46.914400
3823.260000, 46.815600
3824.060000, 46.716400
3824.870000, 46.615800
3825.670000, 46.515200
3826.470000, 46.414500
3827.280000, 46.314700
3828.080000, 46.215900
3828.880000, 46.118400
3829.690000, 46.021600
3830.490000, 45.924800
3831.290000, 45.828000
3832.100000, 45.730500
3832.900000, 45.633400
3833.700000, 45.536800
3834.510000, 45.441600
3835.310000, 45.347100
3836.110000, 45.254000
3836.920000, 45.161200
3837.720000, 45.068900
3838.530000, 44.976700
3839.330000, 44.885000
3840.130000, 44.794400
3840.940000, 44.704700
3841.740000, 44.617000
3842.540000, 44.529800
3843.350000, 44.443900
3844.150000, 44.358400
3844.950000, 44.273500
3845.760000, 44.189100
3846.560000, 44.105200
3847.360000, 44.022200
3848.170000, 43.939500
3848.970000, 43.858700
3849.770000, 43.778400
3850.580000, 43.700400
3851.380000, 43.623700
3852.190000, 43.548900
3852.990000, 43.476000
3853.790000, 43.404300
3854.600000, 43.334600
3855.400000, 43.265300
3856.200000, 43.198000
3857.010000, 43.131000
3857.810000, 43.065000
3858.610000, 42.999400
3859.420000, 42.934400
3860.220000, 42.871300
3861.020000, 42.809000
3861.830000, 42.750900
3862.630000, 42.693600
3863.440000, 42.639700
3864.240000, 42.586500
3865.040000, 42.534600
3865.850000, 42.483400
3866.650000, 42.432800
3867.450000, 42.383600
3868.260000, 42.335000
3869.060000, 42.289200
3869.860000, 42.243800
3870.670000, 42.200700
3871.470000, 42.158300
3872.270000, 42.117400
3873.080000, 42.078400
3873.880000, 42.040900
3874.680000, 42.006200
3875.490000, 41.972400
3876.290000, 41.940600
3877.100000, 41.909200
3877.900000, 41.880000
3878.700000, 41.852200
3879.510000, 41.827000
3880.310000, 41.803500
3881.110000, 41.781400
3881.920000, 41.760800
3882.720000, 41.740800
3883.520000, 41.723700
3884.330000, 41.707400
3885.130000, 41.694900
3885.930000, 41.683400
3886.740000, 41.674200
3887.540000, 41.666100
3888.350000, 41.659000
3889.150000, 41.653300
3889.950000, 41.648200
3890.760000, 41.645600
3891.560000, 41.643600
3892.360000, 41.644900
3893.170000, 41.647000
3893.970000, 41.651800
3894.770000, 41.657700
3895.580000, 41.665300
3896.380000, 41.674400
3897.180000, 41.684500
3897.990000, 41.697200
3898.790000, 41.710700
3899.590000, 41.728400
3900.400000, 41.746700
3901.200000, 41.768300
3902.010000, 41.790400
3902.810000, 41.813900
3903.610000, 41.838100
3904.420000, 41.863100
3905.220000, 41.889300
3906.020000, 41.916200
3906.830000, 41.945400
3907.630000, 41.975100
3908.430000, 42.008800
3909.240000, 42.043100
3910.040000, 42.081100
3910.840000, 42.119700
3911.650000, 42.160100
3912.450000, 42.201200
3913.250000, 42.243100
3914.060000, 42.286600
3914.860000, 42.331000
3915.670000, 42.378900
3916.470000, 42.427700
3917.270000, 42.480400
3918.080000, 42.533500
3918.880000, 42.588200
3919.680000, 42.643100
3920.490000, 42.698800
3921.290000, 42.755300
3922.090000, 42.813000
3922.900000, 42.872300
3923.700000, 42.932700
3924.500000, 42.995200
3925.310000, 43.058500
3926.110000, 43.125200
3926.920000, 43.192400
3927.720000, 43.263400
3928.520000, 43.334900
3929.330000, 43.408600
3930.130000, 43.482700
3930.930000, 43.557700
3931.740000, 43.633000
3932.540000, 43.708600
3933.340000, 43.785000
3934.150000, 43.861900
3934.950000, 43.940700
3935.750000, 44.020000
3936.560000, 44.101100
3937.360000, 44.182600
3938.160000, 44.265800
3938.970000, 44.349400
3939.770000, 44.435600
3940.580000, 44.522600
3941.380000, 44.611700
3942.180000, 44.701300
3942.990000, 44.791500
3943.790000, 44.881900
3944.590000, 44.972300
3945.400000, 45.063100
3946.200000, 45.154000
3947.000000, 45.245800
3947.810000, 45.337700
3948.610000, 45.431700
3949.410000, 45.526000
3950.220000, 45.622800
3951.020000, 45.719700
3951.820000, 45.817000
3952.630000, 45.913600
3953.430000, 46.008800
3954.240000, 46.103200
3955.040000, 46.196700
3955.840000, 46.291000
3956.650000, 46.385600
3957.450000, 46.482600
3958.250000, 46.580300
3959.060000, 46.679500
3959.860000, 46.778900
3960.660000, 46.877400
3961.470000, 46.975700
3962.270000, 47.072700
3963.070000, 47.169600
3963.880000, 47.266200
3964.680000, 47.362900
3965.490000, 47.459600
3966.290000, 47.556400
3967.090000, 47.653400
3967.900000, 47.750000
3968.700000, 47.846400
3969.500000, 47.941200
3970.310000, 48.035200
3971.110000, 48.127000
3971.910000, 48.218100
3972.720000, 48.308200
3973.520000, 48.398200
3974.320000, 48.487000
3975.130000, 48.575500
3975.930000, 48.661400
3976.730000, 48.746800
3977.540000, 48.830000
3978.340000, 48.912800
3979.150000, 48.994700
3979.950000, 49.076000
3980.750000, 49.156300
3981.560000, 49.235700
3982.360000, 49.314100
3983.160000, 49.391100
3983.970000, 49.467100
3984.770000, 49.540700
3985.570000, 49.613300
3986.380000, 49.682800
3987.180000, 49.751500
3987.980000, 49.816700
3988.790000, 49.881300
3989.590000, 49.942300
3990.390000, 50.002900
3991.200000, 50.061000
3992.000000, 50.118700
3992.810000, 50.174300
3993.610000, 50.228800
3994.410000, 50.279600
3995.220000, 50.328400
3996.020000, 50.372700
3996.820000, 50.415100
3997.630000, 50.454500
3998.430000, 50.492400
3999.230000, 50.528600
4000.040000, 50.562700
4000.840000, 50.595200
4001.640000, 50.624400
4002.450000, 50.651500
4003.250000, 50.674300
4004.060000, 50.695400
4004.860000, 50.711400
4005.660000, 50.726100
4006.470000, 50.735800
4007.270000, 50.744600
4008.070000, 50.748900
4008.880000, 50.752900
4009.680000, 50.752900
4010.480000, 50.752600
4011.290000, 50.748500
4012.090000, 50.743500
4012.890000, 50.733700
4013.700000, 50.722400
4014.500000, 50.705400
4015.300000, 50.686300
4016.110000, 50.662200
4016.910000, 50.636000
4017.720000, 50.606000
4018.520000, 50.573800
4019.320000, 50.538700
4020.130000, 50.500900
4020.930000, 50.460500
4021.730000, 50.417100
4022.540000, 50.371200
4023.340000, 50.321900
4024.140000, 50.270300
4024.950000, 50.214600
4025.750000, 50.156800
4026.550000, 50.094800
4027.360000, 50.031200
4028.160000, 49.963400
4028.970000, 49.894400
4029.770000, 49.820500
4030.570000, 49.745600
4031.380000, 49.665300
4032.180000, 49.584200
4032.980000, 49.498100
4033.790000, 49.411600
4034.590000, 49.321000
4035.390000, 49.230300
4036.200000, 49.135200
4037.000000, 49.039900
4037.800000, 48.939200
4038.610000, 48.838000
4039.410000, 48.731500
4040.210000, 48.624500
4041.020000, 48.513700
4041.820000, 48.402400
4042.630000, 48.288300
4043.430000, 48.173200
4044.230000, 48.054600
4045.040000, 47.934600
4045.840000, 47.810700
4046.640000, 47.685400
4047.450000, 47.556700
4048.250000, 47.426600
4049.050000, 47.293600
4049.860000, 47.159000
4050.660000, 47.021800
4051.460000, 46.883500
4052.270000, 46.743500
4053.070000, 46.602500
4053.870000, 46.460300
4054.680000, 46.316800
4055.480000, 46.171800
4056.290000, 46.025900
4057.090000, 45.878900
4057.890000, 45.731200
4058.700000, 45.582700
4059.500000, 45.432800
4060.300000, 45.281500
4061.110000, 45.128300
4061.910000, 44.973500
4062.710000, 44.817000
4063.520000, 44.659300
4064.320000, 44.500100
4065.120000, 44.339900
4065.930000, 44.178700
4066.730000, 44.016900
4067.540000, 43.854700
4068.340000, 43.692300
4069.140000, 43.529200
4069.950000, 43.365800
4070.750000, 43.201100
4071.550000, 43.035700
4072.360000, 42.869800
4073.160000, 42.703800
4073.960000, 42.538600
4074.770000, 42.373900
4075.570000, 42.209600
4076.370000, 42.045700
4077.180000, 41.881200
4077.980000, 41.716400
4078.780000, 41.551200
4079.590000, 41.385900
4080.390000, 41.220800
4081.200000, 41.055800
4082.000000, 40.890600
4082.800000, 40.725400
4083.610000, 40.560100
4084.410000, 40.394700
4085.210000, 40.230600
4086.020000, 40.066900
4086.820000, 39.904600
4087.620000, 39.742800
4088.430000, 39.581300
4089.230000, 39.419900
4090.030000, 39.258600
4090.840000, 39.097600
4091.640000, 38.937300
4092.440000, 38.777600
4093.250000, 38.619000
4094.050000, 38.461100
4094.860000, 38.304700
4095.660000, 38.149200
4096.460000, 37.995300
4097.270000, 37.842300
4098.070000, 37.690300
4098.870000, 37.538900
4099.680000, 37.388600
4100.480000, 37.238800
4101.280000, 37.090300
4102.090000, 36.942700
4102.890000, 36.796000
4103.690000, 36.650000
4104.500000, 36.504900
4105.300000, 36.360600
4106.110000, 36.217700
4106.910000, 36.076100
4107.710000, 35.936100
4108.520000, 35.797500
4109.320000, 35.660200
4110.120000, 35.524100
4110.930000, 35.389300
4111.730000, 35.255800
4112.530000, 35.123800
4113.340000, 34.993400
4114.140000, 34.864300
4114.940000, 34.736800
4115.750000, 34.610200
4116.550000, 34.484900
4117.350000, 34.360300
4118.160000, 34.237100
4118.960000, 34.114700
4119.770000, 33.994200
4120.570000, 33.874600
4121.370000, 33.757200
4122.180000, 33.640400
4122.980000, 33.525600
4123.780000, 33.411400
4124.590000, 33.299600
4125.390000, 33.188400
4126.190000, 33.080700
4127.000000, 32.973400
4127.800000, 32.869400
4128.600000, 32.765600
4129.410000, 32.664500
4130.210000, 32.563400
4131.020000, 32.465300
4131.820000, 32.367300
4132.620000, 32.272400
4133.430000, 32.177600
4134.230000, 32.084600
4135.030000, 31.991800
4135.840000, 31.900500
4136.640000, 31.809300
4137.440000, 31.721000
4138.250000, 31.633300
4139.050000, 31.549000
4139.850000, 31.465700
4140.660000, 31.384600
4141.460000, 31.304600
4142.260000, 31.226200
4143.070000, 31.148700
4143.870000, 31.073000
4144.680000, 30.998500
4145.480000, 30.925800
4146.280000, 30.854500
4147.090000, 30.784500
4147.890000, 30.716100
4148.690000, 30.648600
4149.500000, 30.582600
4150.300000, 30.517600
4151.100000, 30.454300
4151.910000, 30.391800
4152.710000, 30.331700
4153.510000, 30.272200
4154.320000, 30.215300
4155.120000, 30.158800
4155.920000, 30.105000
4156.730000, 30.051300
4157.530000, 30.000800
4158.340000, 29.950200
4159.140000, 29.902800
4159.940000, 29.855400
4160.750000, 29.810600
4161.550000, 29.766200
4162.350000, 29.724300
4163.160000, 29.682900
4163.960000, 29.644100
4164.760000, 29.606100
4165.570000, 29.570600
4166.370000, 29.536400
4167.170000, 29.503600
4167.980000, 29.471900
4168.780000, 29.440800
4169.590000, 29.410300
4170.390000, 29.380500
4171.190000, 29.351500
4172.000000, 29.323600
4172.800000, 29.297700
4173.600000, 29.272600
4174.410000, 29.250000
4175.210000, 29.228000
4176.010000, 29.208500
4176.820000, 29.189100
4177.620000, 29.172500
4178.420000, 29.155900
4179.230000, 29.141100
4180.030000, 29.126400
4180.830000, 29.112300
4181.640000, 29.098200
4182.440000, 29.084500
4183.250000, 29.071000
4184.050000, 29.058400
4184.850000, 29.046200
4185.660000, 29.034800
4186.460000, 29.023900
4187.260000, 29.012800
4188.070000, 29.001200
4188.870000, 28.988600
4189.670000, 28.974000
4190.480000, 28.958500
4191.280000, 28.940000
4192.080000, 28.920800
4192.890000, 28.897800
4193.690000, 28.874700
4194.490000, 28.846500
4195.300000, 28.818300
4196.100000, 28.785400
4196.910000, 28.752300
4197.710000, 28.715900
4198.510000, 28.678900
4199.320000, 28.640300
4200.120000, 28.601000
4200.920000, 28.561700
4201.730000, 28.522300
4202.530000, 28.483100
4203.330000, 28.443900
4204.140000, 28.403800
4204.940000, 28.361900
4205.740000, 28.318800
4206.550000, 28.271700
4207.350000, 28.224300
4208.160000, 28.173700
4208.960000, 28.123200
4209.760000, 28.071200
4210.570000, 28.019100
4211.370000, 27.963700
4212.170000, 27.907700
4212.980000, 27.847500
4213.780000, 27.785700
4214.580000, 27.721700
4215.390000, 27.656300
4216.190000, 27.589900
4216.990000, 27.522200
4217.800000, 27.453700
4218.600000, 27.383400
4219.400000, 27.313200
4220.210000, 27.243600
4221.010000, 27.174200
4221.820000, 27.109700
4222.620000, 27.045100
4223.420000, 26.985200
4224.230000, 26.925800
4225.030000, 26.869800
4225.830000, 26.814700
4226.640000, 26.762300
4227.440000, 26.711500
4228.240000, 26.662500
4229.050000, 26.615400
4229.850000, 26.571000
4230.650000, 26.532000
4231.460000, 26.495700
4232.260000, 26.471200
4233.060000, 26.447200
4233.870000, 26.432900
4234.670000, 26.418700
4235.480000, 26.407700
4236.280000, 26.397200
4237.080000, 26.394100
4237.890000, 26.393600
4238.690000, 26.402600
4239.490000, 26.418300
4240.300000, 26.440600
4241.100000, 26.471900
4241.900000, 26.508400
4242.710000, 26.558900
4243.510000, 26.611300
4244.310000, 26.680000
4245.120000, 26.748700
4245.920000, 26.819500
4246.730000, 26.890500
4247.530000, 26.956500
4248.330000, 27.021200
4249.140000, 27.090000
4249.940000, 27.161400
4250.740000, 27.238700
4251.550000, 27.323300
4252.350000, 27.408100
4253.150000, 27.493900
4253.960000, 27.577800
4254.760000, 27.646300
4255.560000, 27.714900
4256.370000, 27.742900
4257.170000, 27.768300
4257.970000, 27.742900
4258.780000, 27.701900
4259.580000, 27.621300
4260.390000, 27.513000
4261.190000, 27.390500
4261.990000, 27.247400
4262.800000, 27.105900
4263.600000, 26.969500
4264.400000, 26.834300
4265.210000, 26.720800
4266.010000, 26.607400
4266.810000, 26.511400
4267.620000, 26.418200
4268.420000, 26.333400
4269.220000, 26.252600
4270.030000, 26.174000
4270.830000, 26.097700
4271.640000, 26.021800
4272.440000, 25.946900
4273.240000, 25.873200
4274.050000, 25.808700
4274.850000, 25.744300
4275.650000, 25.695400
4276.460000, 25.647800
4277.260000, 25.609300
4278.060000, 25.574200
4278.870000, 25.545100
4279.670000, 25.521100
4280.470000, 25.498500
4281.280000, 25.478500
4282.080000, 25.456400
4282.880000, 25.420300
4283.690000, 25.384200
4284.490000, 25.326100
4285.300000, 25.266400
4286.100000, 25.198600
4286.900000, 25.127700
4287.710000, 25.056500
4288.510000, 24.984900
4289.310000, 24.913200
4290.120000, 24.841500
4290.920000, 24.769500
4291.720000, 24.695400
4292.530000, 24.621400
4293.330000, 24.544200
4294.130000, 24.466700
4294.940000, 24.388300
4295.740000, 24.309500
4296.540000, 24.232100
4297.350000, 24.156000
4298.150000, 24.080300
4298.960000, 24.005700
4299.760000, 23.930900
4300.560000, 23.853000
4301.370000, 23.775200
4302.170000, 23.693600
4302.970000, 23.611200
4303.780000, 23.526500
4304.580000, 23.440300
4305.380000, 23.353000
4306.190000, 23.263900
4306.990000, 23.174800
4307.790000, 23.085400
4308.600000, 22.996000
4309.400000, 22.907500
4310.210000, 22.819100
4311.010000, 22.730900
4311.810000, 22.642600
4312.620000, 22.554000
4313.420000, 22.464900
4314.220000, 22.375400
4315.030000, 22.284500
4315.830000, 22.193600
4316.630000, 22.098800
4317.440000, 22.004000
4318.240000, 21.903100
4319.040000, 21.800400
4319.850000, 21.692000
4320.650000, 21.578400
4321.450000, 21.462500
4322.260000, 21.340600
4323.060000, 21.218700
4323.870000, 21.095400
4324.670000, 20.972100
4325.470000, 20.851900
4326.280000, 20.732600
4327.080000, 20.616300
4327.880000, 20.502600
4328.690000, 20.389900
4329.490000, 20.279700
4330.290000, 20.169500
4331.100000, 20.059800
4331.900000, 19.950100
4332.700000, 19.839800
4333.510000, 19.729500
4334.310000, 19.619600
4335.110000, 19.509900
4335.920000, 19.401000
4336.720000, 19.293500
4337.530000, 19.186100
4338.330000, 19.078100
4339.130000, 18.970200
4339.940000, 18.858500
4340.740000, 18.745700
4341.540000, 18.630500
4342.350000, 18.513000
4343.150000, 18.395300
4343.950000, 18.276600
4344.760000, 18.158000
4345.560000, 18.041100
4346.360000, 17.924100
4347.170000, 17.809600
4347.970000, 17.695800
4348.780000, 17.583700
4349.580000, 17.473400
4350.380000, 17.363600
4351.190000, 17.255700
4351.990000, 17.147700
4352.790000, 17.040700
4353.600000, 16.933800
4354.400000, 16.827100
4355.200000, 16.720600
4356.010000, 16.614400
4356.810000, 16.508900
4357.610000, 16.403500
4358.420000, 16.299700
4359.220000, 16.196000
4360.020000, 16.093700
4360.830000, 15.991800
4361.630000, 15.891000
4362.440000, 15.791300
4363.240000, 15.692300
4364.040000, 15.595100
4364.850000, 15.497900
4365.650000, 15.402900
4366.450000, 15.308000
4367.260000, 15.214600
4368.060000, 15.121900
4368.860000, 15.030000
4369.670000, 14.939500
4370.470000, 14.849200
4371.270000, 14.761100
4372.080000, 14.673000
4372.880000, 14.587700
4373.690000, 14.503100
4374.490000, 14.420700
4375.290000, 14.340300
4376.100000, 14.260700
4376.900000, 14.183700
4377.700000, 14.106700
4378.510000, 14.030000
4379.310000, 13.953400
4380.110000, 13.875700
4380.920000, 13.797300
4381.720000, 13.718600
4382.520000, 13.639300
4383.330000, 13.560100
4384.130000, 13.483300
4384.930000, 13.406600
4385.740000, 13.332700
4386.540000, 13.260100
4387.350000, 13.188800
4388.150000, 13.119400
4388.950000, 13.050300
4389.760000, 12.983400
4390.560000, 12.916400
4391.360000, 12.851500
4392.170000, 12.787200
4392.970000, 12.724200
4393.770000, 12.662800
4394.580000, 12.601900
4395.380000, 12.543600
4396.180000, 12.485300
4396.990000, 12.429600
4397.790000, 12.374500
4398.590000, 12.321000
4399.400000, 12.269200
4400.200000, 12.218100
4401.010000, 12.170400
4401.810000, 12.122800
4402.610000, 12.078500
4403.420000, 12.034900
4404.220000, 11.992300
4405.020000, 11.950600
4405.830000, 11.908900
4406.630000, 11.867300
4407.430000, 11.825700
4408.240000, 11.784700
4409.040000, 11.743900
4409.840000, 11.704700
4410.650000, 11.666900
4411.450000, 11.630100
4412.260000, 11.596800
4413.060000, 11.563400
4413.860000, 11.533400
4414.670000, 11.503800
4415.470000, 11.475700
4416.270000, 11.448700
4417.080000, 11.422100
4417.880000, 11.397200
4418.680000, 11.372200
4419.490000, 11.349000
4420.290000, 11.326100
4421.090000, 11.303700
4421.900000, 11.281900
4422.700000, 11.260200
4423.500000, 11.239100
4424.310000, 11.218000
4425.110000, 11.198700
4425.920000, 11.179700
4426.720000, 11.162400
4427.520000, 11.147000
4428.330000, 11.132100
4429.130000, 11.120600
4429.930000, 11.109000
4430.740000, 11.099500
4431.540000, 11.090600
4432.340000, 11.082400
4433.150000, 11.075100
4433.950000, 11.067900
4434.750000, 11.062200
4435.560000, 11.056400
4436.360000, 11.052400
4437.160000, 11.049200
4437.970000, 11.046700
4438.770000, 11.045900
4439.580000, 11.045100
4440.380000, 11.045800
4441.180000, 11.046500
4441.990000, 11.048500
4442.790000, 11.051200
4443.590000, 11.054500
4444.400000, 11.060000
4445.200000, 11.065600
4446.000000, 11.073700
4446.810000, 11.082300
4447.610000, 11.092100
4448.410000, 11.103200
4449.220000, 11.114500
4450.020000, 11.127500
4450.830000, 11.140600
4451.630000, 11.154800
4452.430000, 11.169400
4453.240000, 11.184700
4454.040000, 11.201000
4454.840000, 11.217400
4455.650000, 11.235600
4456.450000, 11.253700
4457.250000, 11.273300
4458.060000, 11.293800
4458.860000, 11.314800
4459.660000, 11.338000
4460.470000, 11.361200
4461.270000, 11.385800
4462.070000, 11.410800
4462.880000, 11.436100
4463.680000, 11.461700
4464.490000, 11.487400
4465.290000, 11.514600
4466.090000, 11.541800
4466.900000, 11.570700
4467.700000, 11.600700
4468.500000, 11.631100
4469.310000, 11.663300
4470.110000, 11.695500
4470.910000, 11.729100
4471.720000, 11.762900
4472.520000, 11.797700
4473.320000, 11.833600
4474.130000, 11.869500
4474.930000, 11.907500
4475.730000, 11.945500
4476.540000, 11.984300
4477.340000, 12.023500
4478.150000, 12.062900
4478.950000, 12.103000
4479.750000, 12.143000
4480.560000, 12.184200
4481.360000, 12.225600
4482.160000, 12.267700
4482.970000, 12.310500
4483.770000, 12.353400
4484.570000, 12.397600
4485.380000, 12.441700
4486.180000, 12.487400
4486.980000, 12.534100
4487.790000, 12.581400
4488.590000, 12.631400
4489.400000, 12.681400
4490.200000, 12.733000
4491.000000, 12.785200
4491.810000, 12.837600
4492.610000, 12.890500
4493.410000, 12.943400
4494.220000, 12.996800
4495.020000, 13.050300
4495.820000, 13.104400
4496.630000, 13.159300
4497.430000, 13.214300
4498.230000, 13.271300
4499.040000, 13.328200
4499.840000, 13.386300
4500.640000, 13.445000
4501.450000, 13.503700
4502.250000, 13.562600
4503.060000, 13.621500
4503.860000, 13.679800
4504.660000, 13.737900
4505.470000, 13.796000
4506.270000, 13.854100
4507.070000, 13.912100
4507.880000, 13.971200
4508.680000, 14.030400
4509.480000, 14.090200
4510.290000, 14.150600
4511.090000, 14.211000
4511.890000, 14.272900
4512.700000, 14.334800
4513.500000, 14.398100
4514.310000, 14.462400
4515.110000, 14.527000
4515.910000, 14.593200
4516.720000, 14.659300
4517.520000, 14.725400
4518.320000, 14.791500
4519.130000, 14.857300
4519.930000, 14.922100
4520.730000, 14.986900
4521.540000, 15.051200
4522.340000, 15.115400
4523.140000, 15.179700
4523.950000, 15.244200
4524.750000, 15.308600
4525.550000, 15.373600
4526.360000, 15.438700
4527.160000, 15.503900
4527.970000, 15.569300
4528.770000, 15.634700
4529.570000, 15.700500
4530.380000, 15.766400
4531.180000, 15.832400
4531.980000, 15.898600
4532.790000, 15.964800
4533.590000, 16.031000
4534.390000, 16.097100
4535.200000, 16.162700
4536.000000, 16.227800
4536.800000, 16.292800
4537.610000, 16.356700
4538.410000, 16.420500
4539.210000, 16.483900
4540.020000, 16.547000
4540.820000, 16.610100
4541.630000, 16.673500
4542.430000, 16.736900
4543.230000, 16.800400
4544.040000, 16.863900
4544.840000, 16.927200
4545.640000, 16.989700
4546.450000, 17.052200
4547.250000, 17.113600
4548.050000, 17.174500
4548.860000, 17.234800
4549.660000, 17.293700
4550.460000, 17.352600
4551.270000, 17.409300
4552.070000, 17.465300
4552.880000, 17.520500
4553.680000, 17.573700
4554.480000, 17.627000
4555.290000, 17.679500
4556.090000, 17.731900
4556.890000, 17.784400
4557.700000, 17.837300
4558.500000, 17.890200
4559.300000, 17.942900
4560.110000, 17.995600
4560.910000, 18.047700
4561.710000, 18.098500
4562.520000, 18.149200
4563.320000, 18.197900
4564.120000, 18.246100
4564.930000, 18.293600
4565.730000, 18.339800
4566.540000, 18.386100
4567.340000, 18.430800
4568.140000, 18.475100
4568.950000, 18.518600
4569.750000, 18.560200
4570.550000, 18.601700
4571.360000, 18.640700
4572.160000, 18.679000
4572.960000, 18.716500
4573.770000, 18.751900
4574.570000, 18.787300
4575.370000, 18.820000
4576.180000, 18.852100
4576.980000, 18.883300
4577.780000, 18.912000
4578.590000, 18.940700
4579.390000, 18.967800
4580.200000, 18.994400
4581.000000, 19.020600
4581.800000, 19.045700
4582.610000, 19.070800
4583.410000, 19.094200
4584.210000, 19.117000
4585.020000, 19.139100
4585.820000, 19.158500
4586.620000, 19.177800
4587.430000, 19.194800
4588.230000, 19.210700
4589.030000, 19.226100
4589.840000, 19.238900
4590.640000, 19.251600
4591.450000, 19.262500
4592.250000, 19.272200
4593.050000, 19.281600
4593.860000, 19.288200
4594.660000, 19.294700
4595.460000, 19.299400
4596.270000, 19.302700
4597.070000, 19.305900
4597.870000, 19.306000
4598.680000, 19.306100
4599.480000, 19.304400
4600.280000, 19.300900
4601.090000, 19.297400
4601.890000, 19.290100
4602.690000, 19.282600
4603.500000, 19.273600
4604.300000, 19.262400
4605.110000, 19.251200
4605.910000, 19.237100
4606.710000, 19.222500
4607.520000, 19.206700
4608.320000, 19.188300
4609.120000, 19.169900
4609.930000, 19.148000
4610.730000, 19.125100
4611.530000, 19.101400
4612.340000, 19.074900
4613.140000, 19.048400
4613.940000, 19.020400
4614.750000, 18.991800
4615.550000, 18.962900
4616.360000, 18.932100
4617.160000, 18.901300
4617.960000, 18.868300
4618.770000, 18.833600
4619.570000, 18.799000
4620.370000, 18.760000
4621.180000, 18.721000
4621.980000, 18.680400
4622.780000, 18.637700
4623.590000, 18.595000
4624.390000, 18.549200
4625.190000, 18.502900
4626.000000, 18.455300
4626.800000, 18.404900
4627.600000, 18.354500
4628.410000, 18.301100
4629.210000, 18.246800
4630.020000, 18.191800
4630.820000, 18.133800
4631.620000, 18.075900
4632.430000, 18.016000
4633.230000, 17.954600
4634.030000, 17.893200
4634.840000, 17.828300
4635.640000, 17.763500
4636.440000, 17.697300
4637.250000, 17.629400
4638.050000, 17.561500
4638.850000, 17.491800
4639.660000, 17.421900
4640.460000, 17.351300
4641.260000, 17.279100
4642.070000, 17.206900
4642.870000, 17.132400
4643.680000, 17.056800
4644.480000, 16.980900
4645.280000, 16.901900
4646.090000, 16.822900
4646.890000, 16.742400
4647.690000, 16.660500
4648.500000, 16.578700
4649.300000, 16.494500
4650.100000, 16.410100
4650.910000, 16.325000
4651.710000, 16.238200
4652.510000, 16.151500
4653.320000, 16.063100
4654.120000, 15.974100
4654.930000, 15.884900
4655.730000, 15.793900
4656.530000, 15.703000
4657.340000, 15.610600
4658.140000, 15.517100
4658.940000, 15.423500
4659.750000, 15.327200
4660.550000, 15.230700
4661.350000, 15.133500
4662.160000, 15.034800
4662.960000, 14.936100
4663.760000, 14.835900
4664.570000, 14.735200
4665.370000, 14.634300
4666.170000, 14.531300
4666.980000, 14.428400
4667.780000, 14.324900
4668.590000, 14.220700
4669.390000, 14.116500
4670.190000, 14.011800
4671.000000, 13.907100
4671.800000, 13.802200
4672.600000, 13.696600
4673.410000, 13.591100
4674.210000, 13.485200
4675.010000, 13.379100
4675.820000, 13.273000
4676.620000, 13.166600
4677.420000, 13.060200
4678.230000, 12.953100
4679.030000, 12.845000
4679.830000, 12.736900
4680.640000, 12.626600
4681.440000, 12.515600
4682.250000, 12.404300
4683.050000, 12.291100
4683.850000, 12.178000
4684.660000, 12.064600
4685.460000, 11.950800
4686.260000, 11.837100
4687.070000, 11.723700
4687.870000, 11.610300
4688.670000, 11.497000
4689.480000, 11.383700
4690.280000, 11.270500
4691.080000, 11.157000
4691.890000, 11.043200
4692.690000, 10.929600
4693.500000, 10.814700
4694.300000, 10.699900
4695.100000, 10.584500
4695.910000, 10.467900
4696.710000, 10.351300
4697.510000, 10.234100
4698.320000, 10.116800
4699.120000, 9.999470
4699.920000, 9.883420
4700.730000, 9.767410
4701.530000, 9.651830
4702.330000, 9.536960
4703.140000, 9.422130
4703.940000, 9.307150
4704.740000, 9.192150
4705.550000, 9.077170
4706.350000, 8.962060
4707.160000, 8.846980
4707.960000, 8.732070
4708.760000, 8.617360
4709.570000, 8.502690
4710.370000, 8.388300
4711.170000, 8.274040
4711.980000, 8.159800
4712.780000, 8.045480
4713.580000, 7.931200
4714.390000, 7.816620
4715.190000, 7.701600
4715.990000, 7.586610
4716.800000, 7.471750
4717.600000, 7.356960
4718.410000, 7.242370
4719.210000, 7.130000
4720.010000, 7.017670
4720.820000, 6.906510
4721.620000, 6.797090
4722.420000, 6.687710
4723.230000, 6.579060
4724.030000, 6.470720
4724.830000, 6.362370
4725.640000, 6.253090
4726.440000, 6.143840
4727.240000, 6.034380
4728.050000, 5.924490
4728.850000, 5.814640
4729.650000, 5.705840
4730.460000, 5.597550
4731.260000, 5.489300
4732.070000, 5.384240
4732.870000, 5.279230
4733.670000, 5.175220
4734.480000, 5.073410
4735.280000, 4.971620
4736.080000, 4.871070
4736.890000, 4.771280
4737.690000, 4.671520
4738.490000, 4.572990
4739.300000, 4.474600
4740.100000, 4.376740
4740.900000, 4.280610
4741.710000, 4.184520
4742.510000, 4.090160
4743.310000, 3.997310
4744.120000, 3.904480
4744.920000, 3.814200
4745.730000, 3.724450
4746.530000, 3.635050
4747.330000, 3.547860
4748.140000, 3.460690
4748.940000, 3.374590
4749.740000, 3.289890
4750.550000, 3.205220
4751.350000, 3.122430
4752.150000, 3.040380
4752.960000, 2.958390
4753.760000, 2.879090
4754.560000, 2.799810
4755.370000, 2.721520
4756.170000, 2.645480
4756.980000, 2.569470
4757.780000, 2.495790
4758.580000, 2.423760
4759.390000, 2.351760
4760.190000, 2.283180
4760.990000, 2.215130
4761.800000, 2.147570
4762.600000, 2.082690
4763.400000, 2.017840
4764.210000, 1.954110
4765.010000, 1.891850
4765.810000, 1.829610
4766.620000, 1.769180
4767.420000, 1.709530
4768.220000, 1.649890
4769.030000, 1.593490
4769.830000, 1.537180
4770.640000, 1.481890
4771.440000, 1.429650
4772.240000, 1.377420
4773.050000, 1.327320
4773.850000, 1.279220
4774.650000, 1.231140
4775.460000, 1.186210
4776.260000, 1.142170
4777.060000, 1.098300
4777.870000, 1.058020
4778.670000, 1.017740
4779.470000, 0.978330
4780.280000, 0.940860
4781.080000, 0.903410
4781.880000, 0.867170
4782.690000, 0.831880
4783.490000, 0.796600
4784.300000, 0.763620
4785.100000, 0.731150
4785.900000, 0.698940
4786.710000, 0.669970
4787.510000, 0.641010
4788.310000, 0.612890
4789.120000, 0.586540
4789.920000, 0.560210
4790.720000, 0.534740
4791.530000, 0.509920
4792.330000, 0.485120
4793.130000, 0.461970
4793.940000, 0.439220
4794.740000, 0.416640
4795.550000, 0.397140
4796.350000, 0.377640
4797.150000, 0.359050
4797.960000, 0.342600
4798.760000, 0.326160
4799.560000, 0.310530
4800.370000, 0.295620
4801.170000, 0.280700
4801.970000, 0.266560
4802.780000, 0.252660
4803.580000, 0.238760
4804.380000, 0.226720
4805.190000, 0.214690
4805.990000, 0.203140
4806.790000, 0.193160
4807.600000, 0.183190
4808.400000, 0.173870
4809.210000, 0.165310
4810.010000, 0.156760
4810.810000, 0.148870
4811.620000, 0.141300
4812.420000, 0.133730
4813.220000, 0.126640
4814.030000, 0.119600
4814.830000, 0.112610
4815.630000, 0.105880
4816.440000, 0.099160
4817.240000, 0.092670
4818.040000, 0.086640
4818.850000, 0.080610
4819.650000, 0.075010
4820.450000, 0.069760
4821.260000, 0.064520
4822.060000, 0.059730
4822.870000, 0.055080
4823.670000, 0.050430
4824.470000, 0.046670
4825.280000, 0.042940
4826.080000, 0.039430
4826.880000, 0.036940
4827.690000, 0.034450
4828.490000, 0.032520
4829.290000, 0.031460
4830.100000, 0.030400
4830.900000, 0.030190
4831.700000, 0.030580
4832.510000, 0.030970
4833.310000, 0.031710
4834.120000, 0.032550
4834.920000, 0.033380
4835.720000, 0.033130
4836.530000, 0.032860
4837.330000, 0.032330
4838.130000, 0.030600
4838.940000, 0.028880
4839.740000, 0.026990
4840.540000, 0.024840
4841.350000, 0.022680
4842.150000, 0.020920
4842.950000, 0.019470
4843.760000, 0.018020
4844.560000, 0.017290
4845.360000, 0.016810
4846.170000, 0.016330
4846.970000, 0.016150
4847.780000, 0.016000
4848.580000, 0.015830
4849.380000, 0.015450
4850.190000, 0.015070
4850.990000, 0.014720
4851.790000, 0.014440
4852.600000, 0.014170
4853.400000, 0.014190
4854.200000, 0.014550
4855.010000, 0.014910
4855.810000, 0.015460
4856.610000, 0.016120
4857.420000, 0.016780
4858.220000, 0.017130
4859.030000, 0.017400
4859.830000, 0.017670
4860.630000, 0.017440
4861.440000, 0.017210
4862.240000, 0.016930
4863.040000, 0.016410
4863.850000, 0.015880
4864.650000, 0.015290
4865.450000, 0.014540
4866.260000, 0.013790
4867.060000, 0.013090
4867.860000, 0.012440
4868.670000, 0.011780
4869.470000, 0.011620
4870.270000, 0.011780
4871.080000, 0.011930
4871.880000, 0.012590
4872.690000, 0.013410
4873.490000, 0.014230
4874.290000, 0.014580
4875.100000, 0.014880
4875.900000, 0.015130
4876.700000, 0.014620
4877.510000, 0.014100
4878.310000, 0.013590
4879.110000, 0.013070
4879.920000, 0.012550
4880.720000, 0.012180
4881.520000, 0.012070
4882.330000, 0.011950
4883.130000, 0.012040
4883.930000, 0.012330
4884.740000, 0.012610
4885.540000, 0.013010
4886.350000, 0.013480
4887.150000, 0.013950
4887.950000, 0.013990
4888.760000, 0.013900
4889.560000, 0.013820
4890.360000, 0.012930
4891.170000, 0.011950
4891.970000, 0.010970
4892.770000, 0.009790
4893.580000, 0.008620
4894.380000, 0.007590
4895.180000, 0.007410
4895.990000, 0.007220
4896.790000, 0.007510
4897.600000, 0.009030
4898.400000, 0.010560
4899.200000, 0.012420
4900.010000, 0.014780
4900.810000, 0.017140
4901.610000, 0.019160
4902.420000, 0.020860
4903.220000, 0.022570
4904.020000, 0.023630
4904.830000, 0.024310
4905.630000, 0.024990
4906.430000, 0.025070
4907.240000, 0.024940
4908.040000, 0.024820
4908.840000, 0.024290
4909.650000, 0.023700
4910.450000, 0.023100
4911.260000, 0.022500
4912.060000, 0.021890
4912.860000, 0.021280
4913.670000, 0.020510
4914.470000, 0.019740
4915.270000, 0.018850
4916.080000, 0.017400
4916.880000, 0.015950
4917.680000, 0.014450
4918.490000, 0.012830
4919.290000, 0.011200
4920.090000, 0.009880
4920.900000, 0.009080
4921.700000, 0.008280
4922.500000, 0.007920
4923.310000, 0.008070
4924.110000, 0.008210
4924.920000, 0.008570
4925.720000, 0.009090
4926.520000, 0.009610
4927.330000, 0.009900
4928.130000, 0.010050
4928.930000, 0.010210
4929.740000, 0.009810
4930.540000, 0.009200
4931.340000, 0.008600
4932.150000, 0.007880
4932.950000, 0.007130
4933.750000, 0.006380
4934.560000, 0.006380
4935.360000, 0.006480
4936.170000, 0.006570
4936.970000, 0.007380
4937.770000, 0.008220
4938.580000, 0.009060
4939.380000, 0.009930
4940.180000, 0.010800
4940.990000, 0.011660
4941.790000, 0.012340
4942.590000, 0.013020
4943.400000, 0.013620
4944.200000, 0.013860
4945.000000, 0.014100
4945.810000, 0.014170
4946.610000, 0.013710
4947.410000, 0.013260
4948.220000, 0.012800
4949.020000, 0.012340
4949.830000, 0.011880
4950.630000, 0.011730
4951.430000, 0.012080
4952.240000, 0.012430
4953.040000, 0.012880
4953.840000, 0.013470
4954.650000, 0.014060
4955.450000, 0.014310
4956.250000, 0.014190
4957.060000, 0.014080
4957.860000, 0.013740
4958.660000, 0.013210
4959.470000, 0.012680
4960.270000, 0.012310
4961.080000, 0.012060
4961.880000, 0.011810
4962.680000, 0.011650
4963.490000, 0.011540
4964.290000, 0.011440
4965.090000, 0.011260
4965.900000, 0.011050
4966.700000, 0.010840
4967.500000, 0.010750
4968.310000, 0.010710
4969.110000, 0.010670
4969.910000, 0.010820
4970.720000, 0.011040
4971.520000, 0.011260
4972.320000, 0.011590
4973.130000, 0.011940
4973.930000, 0.012290
4974.740000, 0.012970
4975.540000, 0.013710
4976.340000, 0.014460
4977.150000, 0.015400
4977.950000, 0.016380
4978.750000, 0.017350
4979.560000, 0.017580
4980.360000, 0.017710
4981.160000, 0.017840
4981.970000, 0.017140
4982.770000, 0.016360
4983.570000, 0.015590
4984.380000, 0.015160
4985.180000, 0.014750
4985.980000, 0.014350
4986.790000, 0.014490
4987.590000, 0.014660
4988.400000, 0.014830
4989.200000, 0.014820
4990.000000, 0.014810
4990.810000, 0.014790
4991.610000, 0.014560
4992.410000, 0.014320
4993.220000, 0.014080
4994.020000, 0.013940
4994.820000, 0.013810
4995.630000, 0.013670
4996.430000, 0.013730
4997.230000, 0.013790
4998.040000, 0.013850
4998.840000, 0.013800
4999.650000, 0.013750
5000.000000, 0.013700
