# Wavelength  (nm), Transmission (%)
200.000000, 0.000646
201.000000, 0.003945
202.000000, 0.000308
203.000000, 0.001841
204.000000, 0.004894
205.000000, 0.007358
206.000000, 0.003138
207.000000, 0.007124
208.000000, 0.003140
209.000000, 0.003847
210.000000, 0.006660
211.000000, 0.007246
212.000000, 0.004443
213.000000, 0.006430
214.000000, 0.001531
215.000000, 0.003404
216.000000, 0.005972
217.000000, 0.008302
218.000000, 0.004586
219.000000, 0.007259
220.000000, 0.002974
221.000000, 0.003561
222.000000, 0.006689
223.000000, 0.008193
224.000000, 0.004392
225.000000, 0.006469
226.000000, 0.002796
227.000000, 0.005214
228.000000, 0.007166
229.000000, 0.008084
230.000000, 0.005225
231.000000, 0.006370
232.000000, 0.003740
233.000000, 0.003742
234.000000, 0.006599
235.000000, 0.007285
236.000000, 0.005453
237.000000, 0.007397
238.000000, 0.003842
239.000000, 0.003496
240.000000, 0.007508
241.000000, 0.006933
242.000000, 0.005783
243.000000, 0.006815
244.000000, 0.004283
245.000000, 0.003363
246.000000, 0.008310
247.000000, 0.007505
248.000000, 0.005434
249.000000, 0.006699
250.000000, 0.003135
251.000000, 0.003484
252.000000, 0.008311
253.000000, 0.007738
254.000000, 0.005329
255.000000, 0.005903
256.000000, 0.003612
257.000000, 0.003846
258.000000, 0.009229
259.000000, 0.007398
260.000000, 0.004883
261.000000, 0.007170
262.000000, 0.004425
263.000000, 0.004083
264.000000, 0.007400
265.000000, 0.007857
266.000000, 0.004658
267.000000, 0.006828
268.000000, 0.002599
269.000000, 0.003171
270.000000, 0.008543
271.000000, 0.009571
272.000000, 0.003974
273.000000, 0.006257
274.000000, 0.003288
275.000000, 0.005461
276.000000, 0.008315
277.000000, 0.008886
278.000000, 0.003754
279.000000, 0.006376
280.000000, 0.003414
281.000000, 0.004328
282.000000, 0.007633
283.000000, 0.009342
284.000000, 0.007976
285.000000, 0.007862
286.000000, 0.002630
287.000000, 0.006272
288.000000, 0.006615
289.000000, 0.009341
290.000000, 0.004119
291.000000, 0.008432
292.000000, 0.003327
293.000000, 0.005938
294.000000, 0.006620
295.000000, 0.010246
296.000000, 0.003903
297.000000, 0.009453
298.000000, 0.003340
299.000000, 0.004814
300.000000, 0.007643
301.000000, 0.009565
302.000000, 0.004932
303.000000, 0.009226
304.000000, 0.003804
305.000000, 0.006065
306.000000, 0.008436
307.000000, 0.008549
308.000000, 0.004604
309.000000, 0.008775
310.000000, 0.003255
311.000000, 0.005736
312.000000, 0.009563
313.000000, 0.009000
314.000000, 0.005851
315.000000, 0.006976
316.000000, 0.003156
317.000000, 0.004958
318.000000, 0.006306
319.000000, 0.007664
320.000000, 0.004324
321.000000, 0.007219
322.000000, 0.003770
323.000000, 0.004663
324.000000, 0.007888
325.000000, 0.008889
326.000000, 0.004555
327.000000, 0.008444
328.000000, 0.003891
329.000000, 0.005114
330.000000, 0.007557
331.000000, 0.008334
332.000000, 0.005007
333.000000, 0.008224
334.000000, 0.002902
335.000000, 0.005454
336.000000, 0.006120
337.000000, 0.009111
338.000000, 0.004682
339.000000, 0.009554
340.000000, 0.003799
341.000000, 0.005682
342.000000, 0.008115
343.000000, 0.008779
344.000000, 0.008227
345.000000, 0.011872
346.000000, 0.008669
347.000000, 0.011428
348.000000, 0.012861
349.000000, 0.014514
350.000000, 0.008228
351.000000, 0.009551
352.000000, 0.004481
353.000000, 0.006356
354.000000, 0.007566
355.000000, 0.009110
356.000000, 0.006573
357.000000, 0.007455
358.000000, 0.004148
359.000000, 0.006796
360.000000, 0.008780
361.000000, 0.008229
362.000000, 0.006029
363.000000, 0.007569
364.000000, 0.004820
365.000000, 0.007132
366.000000, 0.008890
367.000000, 0.007574
368.000000, 0.005930
369.000000, 0.008233
370.000000, 0.006152
371.000000, 0.007358
372.000000, 0.010969
373.000000, 0.019388
374.000000, 0.042891
375.000000, 0.061232
376.000000, 0.047865
377.000000, 0.030068
378.000000, 0.054779
379.000000, 0.116515
380.000000, 0.140634
381.000000, 0.089513
382.000000, 0.034236
383.000000, 0.023354
384.000000, 0.047053
385.000000, 0.247870
386.000000, 2.724089
387.000000, 15.433612
388.000000, 44.478236
389.000000, 76.684433
390.000000, 93.207103
391.000000, 95.955433
392.000000, 96.216229
393.000000, 96.376234
394.000000, 96.555445
395.000000, 96.604169
396.000000, 96.739876
397.000000, 96.875385
398.000000, 96.859888
399.000000, 96.796093
400.000000, 96.828463
401.000000, 96.975091
402.000000, 97.076278
403.000000, 97.121624
404.000000, 97.146038
405.000000, 97.153172
406.000000, 97.325749
407.000000, 97.328625
408.000000, 97.238145
409.000000, 97.209795
410.000000, 97.198325
411.000000, 97.325691
412.000000, 97.393887
413.000000, 97.105683
414.000000, 96.668521
415.000000, 96.529565
416.000000, 96.766767
417.000000, 97.052929
418.000000, 97.238457
419.000000, 97.414137
420.000000, 97.617142
421.000000, 97.748862
422.000000, 97.727429
423.000000, 97.671112
424.000000, 97.689972
425.000000, 97.651537
426.000000, 97.538462
427.000000, 97.465013
428.000000, 97.386218
429.000000, 97.384493
430.000000, 97.446021
431.000000, 97.534081
432.000000, 97.783661
433.000000, 98.046356
434.000000, 97.986522
435.000000, 97.834270
436.000000, 97.875683
437.000000, 97.956208
438.000000, 97.989752
439.000000, 98.006909
440.000000, 98.006271
441.000000, 98.041429
442.000000, 98.036739
443.000000, 97.944038
444.000000, 97.893909
445.000000, 97.886790
446.000000, 97.803704
447.000000, 97.707094
448.000000, 97.715521
449.000000, 97.645824
450.000000, 97.524595
451.000000, 97.562970
452.000000, 97.660098
453.000000, 97.750824
454.000000, 97.787282
455.000000, 97.819150
456.000000, 97.908699
457.000000, 97.908377
458.000000, 97.822853
459.000000, 97.914323
460.000000, 98.009865
461.000000, 97.932839
462.000000, 97.862489
463.000000, 97.906323
464.000000, 97.900882
465.000000, 97.851800
466.000000, 97.851265
467.000000, 97.884224
468.000000, 97.913584
469.000000, 97.885017
470.000000, 97.819633
471.000000, 97.853349
472.000000, 97.897076
473.000000, 97.872942
474.000000, 97.950745
475.000000, 98.077711
476.000000, 98.059932
477.000000, 97.996029
478.000000, 97.984027
479.000000, 98.032361
480.000000, 98.105866
481.000000, 98.135382
482.000000, 98.144923
483.000000, 98.190994
484.000000, 98.198138
485.000000, 98.148185
486.000000, 98.180904
487.000000, 98.212834
488.000000, 98.095991
489.000000, 98.026896
490.000000, 98.074135
491.000000, 98.101071
492.000000, 98.104214
493.000000, 98.038897
494.000000, 97.932381
495.000000, 97.944214
496.000000, 98.006353
497.000000, 98.046344
498.000000, 98.155666
499.000000, 98.202199
500.000000, 98.132035
501.000000, 98.159476
502.000000, 98.263558
503.000000, 98.280015
504.000000, 98.274949
505.000000, 98.294974
506.000000, 98.295608
507.000000, 98.353239
508.000000, 98.388763
509.000000, 98.292366
510.000000, 98.243928
511.000000, 98.295719
512.000000, 98.291566
513.000000, 98.221678
514.000000, 98.153756
515.000000, 98.207709
516.000000, 98.280211
517.000000, 98.078839
518.000000, 97.863984
519.000000, 98.044673
520.000000, 98.201051
521.000000, 98.059383
522.000000, 98.073366
523.000000, 98.318323
524.000000, 98.385309
525.000000, 98.283175
526.000000, 98.285532
527.000000, 98.384308
528.000000, 98.425925
529.000000, 98.382322
530.000000, 98.405659
531.000000, 98.541565
532.000000, 98.535338
533.000000, 98.412080
534.000000, 98.500045
535.000000, 98.615342
536.000000, 98.579401
537.000000, 98.588474
538.000000, 98.610720
539.000000, 98.520645
540.000000, 98.522793
541.000000, 98.587444
542.000000, 98.514661
543.000000, 98.373393
544.000000, 98.357499
545.000000, 98.467566
546.000000, 98.537110
547.000000, 98.423312
548.000000, 98.319044
549.000000, 98.418786
550.000000, 98.465439
551.000000, 98.420948
552.000000, 98.522582
553.000000, 98.588461
554.000000, 98.469042
555.000000, 98.492098
556.000000, 98.631827
557.000000, 98.603482
558.000000, 98.552363
559.000000, 98.604110
560.000000, 98.654652
561.000000, 98.646371
562.000000, 98.617232
563.000000, 98.685149
564.000000, 98.726616
565.000000, 98.718605
566.000000, 98.735831
567.000000, 98.767833
568.000000, 98.714668
569.000000, 98.596964
570.000000, 98.589023
571.000000, 98.726398
572.000000, 98.703425
573.000000, 98.525156
574.000000, 98.523241
575.000000, 98.632636
576.000000, 98.570397
577.000000, 98.559418
578.000000, 98.612216
579.000000, 98.540386
580.000000, 98.436289
581.000000, 98.490783
582.000000, 98.590865
583.000000, 98.709421
584.000000, 98.670678
585.000000, 98.552173
586.000000, 98.570778
587.000000, 98.572603
588.000000, 98.378105
589.000000, 98.319153
590.000000, 98.495137
591.000000, 98.585349
592.000000, 98.593431
593.000000, 98.583329
594.000000, 98.640432
595.000000, 98.736552
596.000000, 98.519376
597.000000, 98.150075
598.000000, 98.019625
599.000000, 97.863770
600.000000, 97.381834
601.000000, 97.157706
602.000000, 97.430901
603.000000, 97.634628
604.000000, 97.538474
605.000000, 97.650953
606.000000, 97.893445
607.000000, 97.756444
608.000000, 97.415759
609.000000, 97.638444
610.000000, 98.185344
611.000000, 98.526487
612.000000, 98.657816
613.000000, 98.721524
614.000000, 98.564516
615.000000, 98.436244
616.000000, 98.481334
617.000000, 98.390262
618.000000, 98.267101
619.000000, 98.481361
620.000000, 98.596631
621.000000, 98.505460
622.000000, 98.513937
623.000000, 98.677277
624.000000, 98.792635
625.000000, 98.839195
626.000000, 98.742065
627.000000, 98.623223
628.000000, 98.601647
629.000000, 98.602780
630.000000, 98.449903
631.000000, 98.207198
632.000000, 98.136121
633.000000, 98.379863
634.000000, 98.783084
635.000000, 98.965913
636.000000, 98.912931
637.000000, 98.837888
638.000000, 98.664400
639.000000, 98.523942
640.000000, 98.630534
641.000000, 98.674201
642.000000, 98.722274
643.000000, 98.833110
644.000000, 98.734194
645.000000, 98.405607
646.000000, 98.266500
647.000000, 98.445100
648.000000, 98.711537
649.000000, 98.948224
650.000000, 98.965056
651.000000, 98.851134
652.000000, 98.789133
653.000000, 98.735905
654.000000, 98.756058
655.000000, 98.899485
656.000000, 98.862273
657.000000, 98.740160
658.000000, 98.556399
659.000000, 98.335917
660.000000, 98.246543
661.000000, 98.453860
662.000000, 98.607259
663.000000, 98.569171
664.000000, 98.552665
665.000000, 98.546950
666.000000, 98.638484
667.000000, 98.829805
668.000000, 98.856580
669.000000, 98.680338
670.000000, 98.485868
671.000000, 98.382862
672.000000, 98.596146
673.000000, 98.900864
674.000000, 98.929111
675.000000, 98.955267
676.000000, 99.036789
677.000000, 98.909825
678.000000, 98.514953
679.000000, 98.318311
680.000000, 98.419413
681.000000, 98.718007
682.000000, 99.016824
683.000000, 99.123304
684.000000, 98.992064
685.000000, 98.771663
686.000000, 98.512279
687.000000, 98.500229
688.000000, 98.785197
689.000000, 99.006306
690.000000, 99.004750
691.000000, 98.941214
692.000000, 98.953863
693.000000, 98.738645
694.000000, 98.363608
695.000000, 98.296989
696.000000, 98.472749
697.000000, 98.759126
698.000000, 98.860030
699.000000, 98.725956
700.000000, 98.509770
701.000000, 98.471589
702.000000, 98.528026
703.000000, 98.728935
704.000000, 98.776384
705.000000, 98.435978
706.000000, 98.117581
707.000000, 98.265598
708.000000, 98.665574
709.000000, 98.814432
710.000000, 98.745751
711.000000, 98.574572
712.000000, 98.547857
713.000000, 98.776690
714.000000, 98.942610
715.000000, 98.852438
716.000000, 98.605668
717.000000, 98.378966
718.000000, 98.460967
719.000000, 98.798896
720.000000, 98.746923
721.000000, 98.467621
722.000000, 98.489734
723.000000, 98.707119
724.000000, 98.794540
725.000000, 98.772148
726.000000, 98.734278
727.000000, 98.853849
728.000000, 98.907292
729.000000, 98.817049
730.000000, 98.733979
731.000000, 98.700432
732.000000, 98.605212
733.000000, 98.610379
734.000000, 98.644780
735.000000, 98.495011
736.000000, 98.430094
737.000000, 98.416118
738.000000, 97.854247
739.000000, 97.143425
740.000000, 97.328339
741.000000, 98.060168
742.000000, 98.481897
743.000000, 98.468196
744.000000, 98.022493
745.000000, 96.215880
746.000000, 88.206715
747.000000, 64.032221
748.000000, 28.139292
749.000000, 5.314345
750.000000, 0.394821
751.000000, 0.096875
752.000000, 0.018230
753.000000, 0.004442
754.000000, 0.001565
755.000000, 0.000342
756.000000, 0.000565
757.000000, 0.000318
758.000000, 0.000152
759.000000, 0.000062
760.000000, 0.000186
761.000000, 0.000425
762.000000, 0.000351
763.000000, 0.000103
764.000000, 0.000243
765.000000, 0.000004
766.000000, 0.000202
767.000000, 0.000326
768.000000, 0.000400
769.000000, 0.000186
770.000000, 0.000169
771.000000, 0.000087
772.000000, 0.000211
773.000000, 0.000450
774.000000, 0.000376
775.000000, 0.000153
776.000000, 0.000235
777.000000, 0.000120
778.000000, 0.000236
779.000000, 0.000524
780.000000, 0.000326
781.000000, 0.000203
782.000000, 0.000170
783.000000, 0.000046
784.000000, 0.000195
785.000000, 0.000466
786.000000, 0.000359
787.000000, 0.000236
788.000000, 0.000178
789.000000, 0.000071
790.000000, 0.000236
791.000000, 0.000540
792.000000, 0.000351
793.000000, 0.000195
794.000000, 0.000203
795.000000, 0.000154
796.000000, 0.000252
797.000000, 0.000540
798.000000, 0.000367
799.000000, 0.000269
800.000000, 0.000261
801.000000, 0.000105
802.000000, 0.000236
803.000000, 0.000482
804.000000, 0.000310
805.000000, 0.000179
806.000000, 0.000228
807.000000, 0.000129
808.000000, 0.000179
809.000000, 0.000121
810.000000, 0.000105
811.000000, 0.000269
812.000000, 0.000384
813.000000, 0.000425
814.000000, 0.000244
815.000000, 0.000343
816.000000, 0.000055
817.000000, 0.000228
818.000000, 0.000376
819.000000, 0.000433
820.000000, 0.000178
821.000000, 0.000203
822.000000, 0.000080
823.000000, 0.000343
824.000000, 0.000474
825.000000, 0.000466
826.000000, 0.000285
827.000000, 0.000400
828.000000, 0.000260
829.000000, 0.000359
830.000000, 0.000507
831.000000, 0.000524
832.000000, 0.000260
833.000000, 0.000276
834.000000, 0.000293
835.000000, 0.000450
836.000000, 0.000615
837.000000, 0.000649
838.000000, 0.000541
839.000000, 0.000400
840.000000, 0.000367
841.000000, 0.000508
842.000000, 0.000608
843.000000, 0.000550
844.000000, 0.000458
845.000000, 0.000359
846.000000, 0.000409
847.000000, 0.000600
848.000000, 0.000708
849.000000, 0.000683
850.000000, 0.000642
851.000000, 0.000475
852.000000, 0.000609
853.000000, 0.000775
854.000000, 0.000809
855.000000, 0.000809
856.000000, 0.000900
857.000000, 0.000692
858.000000, 0.000692
859.000000, 0.000542
860.000000, 0.000763
861.000000, 0.000640
862.000000, 0.000677
863.000000, 0.000685
864.000000, 0.000592
865.000000, 0.000527
866.000000, 0.000550
867.000000, 0.000550
868.000000, 0.000503
869.000000, 0.000479
870.000000, 0.000552
871.000000, 0.000722
872.000000, 0.000844
873.000000, 0.000704
874.000000, 0.000583
875.000000, 0.000503
876.000000, 0.000423
877.000000, 0.000463
878.000000, 0.000523
879.000000, 0.000566
880.000000, 0.000712
881.000000, 0.000752
882.000000, 0.000672
883.000000, 0.000659
884.000000, 0.000695
885.000000, 0.000717
886.000000, 0.000633
887.000000, 0.000551
888.000000, 0.000560
889.000000, 0.000627
890.000000, 0.000662
891.000000, 0.000583
892.000000, 0.000564
893.000000, 0.000634
894.000000, 0.000700
895.000000, 0.000643
896.000000, 0.000475
897.000000, 0.000436
898.000000, 0.000538
899.000000, 0.000637
900.000000, 0.000694
901.000000, 0.000746
902.000000, 0.000689
903.000000, 0.000536
904.000000, 0.000571
905.000000, 0.000656
906.000000, 0.000711
907.000000, 0.000741
908.000000, 0.000567
909.000000, 0.000495
910.000000, 0.000616
911.000000, 0.000644
912.000000, 0.000579
913.000000, 0.000605
914.000000, 0.000670
915.000000, 0.000658
916.000000, 0.000527
917.000000, 0.000509
918.000000, 0.000570
919.000000, 0.000506
920.000000, 0.000547
921.000000, 0.000739
922.000000, 0.000804
923.000000, 0.000624
924.000000, 0.000475
925.000000, 0.000525
926.000000, 0.000734
927.000000, 0.000780
928.000000, 0.000633
929.000000, 0.000432
930.000000, 0.000529
931.000000, 0.000706
932.000000, 0.000647
933.000000, 0.000535
934.000000, 0.000575
935.000000, 0.000604
936.000000, 0.000579
937.000000, 0.000503
938.000000, 0.000564
939.000000, 0.000808
940.000000, 0.000894
941.000000, 0.000751
942.000000, 0.000523
943.000000, 0.000358
944.000000, 0.000513
945.000000, 0.000678
946.000000, 0.000588
947.000000, 0.000510
948.000000, 0.000616
949.000000, 0.000708
950.000000, 0.000575
951.000000, 0.000417
952.000000, 0.000598
953.000000, 0.000744
954.000000, 0.000617
955.000000, 0.000516
956.000000, 0.000561
957.000000, 0.000514
958.000000, 0.000602
959.000000, 0.000628
960.000000, 0.000705
961.000000, 0.000612
962.000000, 0.000493
963.000000, 0.000598
964.000000, 0.000618
965.000000, 0.000713
966.000000, 0.000670
967.000000, 0.000495
968.000000, 0.000394
969.000000, 0.000541
970.000000, 0.000769
971.000000, 0.000721
972.000000, 0.000555
973.000000, 0.000484
974.000000, 0.000620
975.000000, 0.000568
976.000000, 0.000541
977.000000, 0.000660
978.000000, 0.000583
979.000000, 0.000516
980.000000, 0.000524
981.000000, 0.000658
982.000000, 0.000615
983.000000, 0.000527
984.000000, 0.000734
985.000000, 0.000739
986.000000, 0.000619
987.000000, 0.000501
988.000000, 0.000496
989.000000, 0.000623
990.000000, 0.000553
991.000000, 0.000529
992.000000, 0.000672
993.000000, 0.000610
994.000000, 0.000562
995.000000, 0.000598
996.000000, 0.000677
997.000000, 0.000669
998.000000, 0.000540
999.000000, 0.000590
1000.000000, 0.000712
1001.000000, 0.000726
1002.000000, 0.000592
1003.000000, 0.000504
1004.000000, 0.000484
1005.000000, 0.000711
1006.000000, 0.000661
1007.000000, 0.000571
1008.000000, 0.000486
1009.000000, 0.000490
1010.000000, 0.000744
1011.000000, 0.000792
1012.000000, 0.000667
1013.000000, 0.000581
1014.000000, 0.000463
1015.000000, 0.000468
1016.000000, 0.000680
1017.000000, 0.000637
1018.000000, 0.000558
1019.000000, 0.000533
1020.000000, 0.000569
1021.000000, 0.000740
1022.000000, 0.000669
1023.000000, 0.000570
1024.000000, 0.000501
1025.000000, 0.000514
1026.000000, 0.000725
1027.000000, 0.000746
1028.000000, 0.000639
1029.000000, 0.000589
1030.000000, 0.000511
1031.000000, 0.000473
1032.000000, 0.000726
1033.000000, 0.000734
1034.000000, 0.000613
1035.000000, 0.000554
1036.000000, 0.000427
1037.000000, 0.000441
1038.000000, 0.000756
1039.000000, 0.000702
1040.000000, 0.000614
1041.000000, 0.000561
1042.000000, 0.000549
1043.000000, 0.000542
1044.000000, 0.000738
1045.000000, 0.000751
1046.000000, 0.000674
1047.000000, 0.000620
1048.000000, 0.000518
1049.000000, 0.000447
1050.000000, 0.000474
1051.000000, 0.000729
1052.000000, 0.000691
1053.000000, 0.000691
1054.000000, 0.000598
1055.000000, 0.000536
1056.000000, 0.000470
1057.000000, 0.000470
1058.000000, 0.000725
1059.000000, 0.000735
1060.000000, 0.000625
1061.000000, 0.000580
1062.000000, 0.000555
1063.000000, 0.000508
1064.000000, 0.000490
1065.000000, 0.000749
1066.000000, 0.000692
1067.000000, 0.000717
1068.000000, 0.000648
1069.000000, 0.000621
1070.000000, 0.000604
1071.000000, 0.000522
1072.000000, 0.000443
1073.000000, 0.000402
1074.000000, 0.000411
1075.000000, 0.000727
1076.000000, 0.000677
1077.000000, 0.000683
1078.000000, 0.000667
1079.000000, 0.000655
1080.000000, 0.000405
1081.000000, 0.000508
1082.000000, 0.000731
1083.000000, 0.000674
1084.000000, 0.000577
1085.000000, 0.000633
1086.000000, 0.000568
1087.000000, 0.000517
1088.000000, 0.000503
1089.000000, 0.000763
1090.000000, 0.000663
1091.000000, 0.000695
1092.000000, 0.000560
1093.000000, 0.000501
1094.000000, 0.000491
1095.000000, 0.000810
1096.000000, 0.000724
1097.000000, 0.000666
1098.000000, 0.000649
1099.000000, 0.000574
1100.000000, 0.000544
1101.000000, 0.000452
1102.000000, 0.000557
1103.000000, 0.000806
1104.000000, 0.000764
1105.000000, 0.000732
1106.000000, 0.000685
1107.000000, 0.000605
1108.000000, 0.000546
1109.000000, 0.000510
1110.000000, 0.000376
1111.000000, 0.000380
1112.000000, 0.000408
1113.000000, 0.000706
1114.000000, 0.000691
1115.000000, 0.000654
1116.000000, 0.000644
1117.000000, 0.000632
1118.000000, 0.000644
1119.000000, 0.000638
1120.000000, 0.000626
1121.000000, 0.000656
1122.000000, 0.000674
1123.000000, 0.000725
1124.000000, 0.000730
1125.000000, 0.000609
1126.000000, 0.000549
1127.000000, 0.000492
1128.000000, 0.000553
1129.000000, 0.000848
1130.000000, 0.000836
1131.000000, 0.000758
1132.000000, 0.000577
1133.000000, 0.000335
1134.000000, 0.000115
1135.000000, 0.000277
1136.000000, 0.000555
1137.000000, 0.000811
1138.000000, 0.000852
1139.000000, 0.000677
1140.000000, 0.000696
1141.000000, 0.000712
1142.000000, 0.000687
1143.000000, 0.000655
1144.000000, 0.000583
1145.000000, 0.000637
1146.000000, 0.000691
1147.000000, 0.000708
1148.000000, 0.000653
1149.000000, 0.000579
1150.000000, 0.000481
1151.000000, 0.000419
1152.000000, 0.000364
1153.000000, 0.000493
1154.000000, 0.000777
1155.000000, 0.000720
1156.000000, 0.000641
1157.000000, 0.000607
1158.000000, 0.000584
1159.000000, 0.000583
1160.000000, 0.000534
1161.000000, 0.000490
1162.000000, 0.000423
1163.000000, 0.000366
1164.000000, 0.000483
1165.000000, 0.000710
1166.000000, 0.000677
1167.000000, 0.000647
1168.000000, 0.000666
1169.000000, 0.000626
1170.000000, 0.000577
1171.000000, 0.000570
1172.000000, 0.000545
1173.000000, 0.000555
1174.000000, 0.000622
1175.000000, 0.000738
1176.000000, 0.000711
1177.000000, 0.000716
1178.000000, 0.000783
1179.000000, 0.000775
1180.000000, 0.000781
1181.000000, 0.000682
1182.000000, 0.000675
1183.000000, 0.000553
1184.000000, 0.000471
1185.000000, 0.000465
1186.000000, 0.000418
1187.000000, 0.000491
1188.000000, 0.000594
1189.000000, 0.000549
1190.000000, 0.000530
1191.000000, 0.000587
1192.000000, 0.000649
1193.000000, 0.000684
1194.000000, 0.000684
1195.000000, 0.000725
1196.000000, 0.000711
1197.000000, 0.000675
1198.000000, 0.000604
1199.000000, 0.000547
1200.000000, 0.000453
1201.000000, 0.000363
1202.000000, 0.000494
1203.000000, 0.000708
1204.000000, 0.000585
1205.000000, 0.000545
1206.000000, 0.000681
1207.000000, 0.000802
1208.000000, 0.000711
1209.000000, 0.000667
1210.000000, 0.000632
1211.000000, 0.000750
1212.000000, 0.000972
1213.000000, 0.000989
1214.000000, 0.000918
1215.000000, 0.000710
1216.000000, 0.000458
1217.000000, 0.000450
1218.000000, 0.000513
1219.000000, 0.000540
1220.000000, 0.000504
1221.000000, 0.000575
1222.000000, 0.000724
1223.000000, 0.000832
1224.000000, 0.000802
1225.000000, 0.000625
1226.000000, 0.000400
1227.000000, 0.000464
1228.000000, 0.000580
1229.000000, 0.000621
1230.000000, 0.000622
1231.000000, 0.000514
1232.000000, 0.000331
1233.000000, 0.000345
1234.000000, 0.000318
1235.000000, 0.000315
1236.000000, 0.000501
1237.000000, 0.000722
1238.000000, 0.000665
1239.000000, 0.000626
1240.000000, 0.000627
1241.000000, 0.000619
1242.000000, 0.000721
1243.000000, 0.000827
1244.000000, 0.000798
1245.000000, 0.000763
1246.000000, 0.000713
1247.000000, 0.000685
1248.000000, 0.000681
1249.000000, 0.000671
1250.000000, 0.000673
1251.000000, 0.000733
1252.000000, 0.000792
1253.000000, 0.000754
1254.000000, 0.000562
1255.000000, 0.000425
1256.000000, 0.000468
1257.000000, 0.000492
1258.000000, 0.000497
1259.000000, 0.000557
1260.000000, 0.000630
1261.000000, 0.000752
1262.000000, 0.000894
1263.000000, 0.000930
1264.000000, 0.000666
1265.000000, 0.000394
1266.000000, 0.000345
1267.000000, 0.000384
1268.000000, 0.000414
1269.000000, 0.000475
1270.000000, 0.000544
1271.000000, 0.000559
1272.000000, 0.000558
1273.000000, 0.000614
1274.000000, 0.000663
1275.000000, 0.000656
1276.000000, 0.000673
1277.000000, 0.000715
1278.000000, 0.000695
1279.000000, 0.000638
1280.000000, 0.000624
1281.000000, 0.000687
1282.000000, 0.000798
1283.000000, 0.000882
1284.000000, 0.000906
1285.000000, 0.000891
1286.000000, 0.000905
1287.000000, 0.000942
1288.000000, 0.000942
1289.000000, 0.001888
1290.000000, 0.003846
1291.000000, 0.006091
1292.000000, 0.022769
1293.000000, 0.035381
1294.000000, 0.038169
1295.000000, 0.038058
1296.000000, 0.044274
1297.000000, 0.053283
1298.000000, 0.066472
1299.000000, 0.088553
1300.000000, 0.109781
1301.000000, 0.139476
1302.000000, 0.184090
1303.000000, 0.275082
1304.000000, 0.442818
1305.000000, 0.657712
1306.000000, 0.837738
1307.000000, 0.916594
1308.000000, 0.886396
1309.000000, 0.803630
1310.000000, 0.744371
1311.000000, 0.731793
1312.000000, 0.768641
1313.000000, 0.845570
1314.000000, 0.970220
1315.000000, 1.203290
1316.000000, 1.621576
1317.000000, 2.289364
1318.000000, 3.337336
1319.000000, 4.744156
1320.000000, 6.218388
1321.000000, 7.283294
1322.000000, 7.604068
1323.000000, 7.360937
1324.000000, 7.000704
1325.000000, 6.880980
1326.000000, 7.192218
1327.000000, 8.075352
1328.000000, 9.653140
1329.000000, 12.673646
1330.000000, 18.180318
1331.000000, 27.478693
1332.000000, 42.093021
1333.000000, 59.523730
1334.000000, 71.597392
1335.000000, 71.714993
1336.000000, 61.824178
1337.000000, 50.475072
1338.000000, 42.451660
1339.000000, 38.566016
1340.000000, 38.199999
1341.000000, 40.691141
1342.000000, 45.516190
1343.000000, 52.013164
1344.000000, 58.026233
1345.000000, 60.814190
1346.000000, 59.024539
1347.000000, 52.905866
1348.000000, 45.277894
1349.000000, 38.637182
1350.000000, 33.707697
1351.000000, 30.619292
1352.000000, 29.208146
1353.000000, 29.420808
1354.000000, 31.392382
1355.000000, 34.898819
1356.000000, 41.253377
1357.000000, 49.341857
1358.000000, 58.943528
1359.000000, 68.639901
1360.000000, 75.422835
1361.000000, 77.225349
1362.000000, 73.979532
1363.000000, 67.086561
1364.000000, 59.122944
1365.000000, 53.249594
1366.000000, 49.375122
1367.000000, 47.394154
1368.000000, 47.418900
1369.000000, 49.410162
1370.000000, 53.281697
1371.000000, 58.267111
1372.000000, 64.808632
1373.000000, 72.575259
1374.000000, 79.653314
1375.000000, 84.319332
1376.000000, 85.929542
1377.000000, 84.678492
1378.000000, 80.935280
1379.000000, 76.068088
1380.000000, 71.572266
1381.000000, 68.179784
1382.000000, 66.217887
1383.000000, 65.755798
1384.000000, 67.195002
1385.000000, 70.082981
1386.000000, 73.941233
1387.000000, 78.250735
1388.000000, 82.012263
1389.000000, 84.289748
1390.000000, 84.182347
1391.000000, 81.656566
1392.000000, 77.215005
1393.000000, 71.584299
1394.000000, 65.372968
1395.000000, 60.605495
1396.000000, 56.991228
1397.000000, 54.412326
1398.000000, 53.014914
1399.000000, 52.874178
1400.000000, 53.905070
1401.000000, 56.315005
1402.000000, 60.090751
1403.000000, 64.134405
1404.000000, 68.398561
1405.000000, 72.861424
1406.000000, 77.087965
1407.000000, 80.207954
1408.000000, 81.885191
1409.000000, 82.338054
1410.000000, 81.677061
1411.000000, 80.395161
1412.000000, 78.935872
1413.000000, 77.687867
1414.000000, 76.996315
1415.000000, 76.898103
1416.000000, 77.342727
1417.000000, 78.131985
1418.000000, 79.094174
1419.000000, 79.883437
1420.000000, 80.163068
1421.000000, 79.554898
1422.000000, 77.955746
1423.000000, 75.617752
1424.000000, 72.539393
1425.000000, 68.991827
1426.000000, 65.533393
1427.000000, 62.470582
1428.000000, 60.046460
1429.000000, 58.409924
1430.000000, 57.616382
1431.000000, 57.734211
1432.000000, 58.773150
1433.000000, 60.792786
1434.000000, 63.547256
1435.000000, 66.828337
1436.000000, 70.566320
1437.000000, 74.394421
1438.000000, 77.636411
1439.000000, 79.813084
1440.000000, 80.502577
1441.000000, 79.611535
1442.000000, 77.227001
1443.000000, 74.112364
1444.000000, 70.526820
1445.000000, 67.249262
1446.000000, 64.465838
1447.000000, 62.343785
1448.000000, 60.977714
1449.000000, 60.424578
1450.000000, 60.772116
1451.000000, 61.865565
1452.000000, 63.711967
1453.000000, 66.042557
1454.000000, 69.017252
1455.000000, 72.105540
1456.000000, 75.180894
1457.000000, 77.655982
1458.000000, 79.411837
1459.000000, 80.062697
1460.000000, 79.565965
1461.000000, 78.126645
1462.000000, 75.904045
1463.000000, 73.410338
1464.000000, 70.823481
1465.000000, 68.554136
1466.000000, 66.678600
1467.000000, 65.302415
1468.000000, 64.616288
1469.000000, 64.640134
1470.000000, 65.188408
1471.000000, 66.265782
1472.000000, 67.770044
1473.000000, 69.585249
1474.000000, 71.500246
1475.000000, 73.251859
1476.000000, 74.761597
1477.000000, 75.800765
1478.000000, 76.325827
1479.000000, 76.331263
1480.000000, 75.938521
1481.000000, 75.287342
1482.000000, 74.538323
1483.000000, 73.944335
1484.000000, 73.552800
1485.000000, 73.526563
1486.000000, 73.886634
1487.000000, 74.630372
1488.000000, 75.695831
1489.000000, 76.913813
1490.000000, 78.370263
1491.000000, 79.613797
1492.000000, 80.508957
1493.000000, 80.935720
1494.000000, 80.651380
1495.000000, 79.651734
1496.000000, 77.907270
1497.000000, 75.749007
1498.000000, 73.076251
1499.000000, 70.318427
1500.000000, 67.755046
1501.000000, 65.433301
1502.000000, 63.492511
1503.000000, 62.107599
1504.000000, 61.274558
1505.000000, 61.100428
1506.000000, 61.582822
1507.000000, 62.726426
1508.000000, 64.424300
1509.000000, 66.812482
1510.000000, 69.696678
1511.000000, 72.794997
1512.000000, 76.048244
1513.000000, 78.971564
1514.000000, 81.550611
1515.000000, 83.109021
1516.000000, 83.627018
1517.000000, 83.002894
1518.000000, 81.375922
1519.000000, 78.976245
1520.000000, 76.222191
1521.000000, 73.404822
1522.000000, 70.585835
1523.000000, 68.341212
1524.000000, 66.583429
1525.000000, 65.484747
1526.000000, 64.951552
1527.000000, 65.050339
1528.000000, 65.778574
1529.000000, 67.065652
1530.000000, 68.844616
1531.000000, 71.250601
1532.000000, 73.902142
1533.000000, 76.708850
1534.000000, 79.444886
1535.000000, 81.922120
1536.000000, 83.989928
1537.000000, 85.319161
1538.000000, 85.938706
1539.000000, 85.744270
1540.000000, 84.753835
1541.000000, 83.226207
1542.000000, 81.237818
1543.000000, 79.246603
1544.000000, 77.230539
1545.000000, 75.481713
1546.000000, 74.076940
1547.000000, 73.125977
1548.000000, 72.617264
1549.000000, 72.614493
1550.000000, 73.071597
1551.000000, 73.895154
1552.000000, 75.010289
1553.000000, 76.469510
1554.000000, 78.010197
1555.000000, 79.552169
1556.000000, 80.972375
1557.000000, 82.074325
1558.000000, 82.819703
1559.000000, 83.203658
1560.000000, 83.221131
1561.000000, 82.882373
1562.000000, 82.330576
1563.000000, 81.725479
1564.000000, 81.084222
1565.000000, 80.579554
1566.000000, 80.307948
1567.000000, 80.352520
1568.000000, 80.740642
1569.000000, 81.427010
1570.000000, 82.427347
1571.000000, 83.754397
1572.000000, 85.231553
1573.000000, 86.751694
1574.000000, 88.091363
1575.000000, 89.107292
1576.000000, 89.690690
1577.000000, 89.625699
1578.000000, 88.899280
1579.000000, 87.502625
1580.000000, 85.465496
1581.000000, 82.860587
1582.000000, 79.944673
1583.000000, 76.914548
1584.000000, 73.805761
1585.000000, 71.020158
1586.000000, 68.564642
1587.000000, 66.556315
1588.000000, 65.035071
1589.000000, 64.089234
1590.000000, 63.706979
1591.000000, 63.894842
1592.000000, 64.671388
1593.000000, 66.052299
1594.000000, 67.981700
1595.000000, 70.409730
1596.000000, 73.399117
1597.000000, 76.833769
1598.000000, 80.293639
1599.000000, 83.640907
1600.000000, 86.698415
1601.000000, 89.143535
1602.000000, 90.677296
1603.000000, 91.151126
1604.000000, 90.556754
1605.000000, 88.941602
1606.000000, 86.521760
1607.000000, 83.515416
1608.000000, 80.292248
1609.000000, 77.049955
1610.000000, 73.958864
1611.000000, 71.278875
1612.000000, 68.976821
1613.000000, 67.150843
1614.000000, 65.850486
1615.000000, 65.071489
1616.000000, 64.805176
1617.000000, 65.064746
1618.000000, 65.787999
1619.000000, 67.009443
1620.000000, 68.698431
1621.000000, 70.855979
1622.000000, 73.378833
1623.000000, 76.067115
1624.000000, 79.030107
1625.000000, 82.066988
1626.000000, 84.852232
1627.000000, 87.345753
1628.000000, 89.373607
1629.000000, 90.741638
1630.000000, 91.391787
1631.000000, 91.299077
1632.000000, 90.481596
1633.000000, 89.074909
1634.000000, 87.328084
1635.000000, 85.353426
1636.000000, 83.331707
1637.000000, 81.386680
1638.000000, 79.594062
1639.000000, 78.082891
1640.000000, 76.856085
1641.000000, 75.915322
1642.000000, 75.329474
1643.000000, 75.072345
1644.000000, 75.119445
1645.000000, 75.453698
1646.000000, 75.992386
1647.000000, 76.739812
1648.000000, 77.658488
1649.000000, 78.666118
1650.000000, 79.728254
1651.000000, 80.797892
1652.000000, 81.849212
1653.000000, 82.834506
1654.000000, 83.721474
1655.000000, 84.520082
1656.000000, 85.195884
1657.000000, 85.736523
1658.000000, 86.163012
1659.000000, 86.457931
1660.000000, 86.662804
1661.000000, 86.766194
1662.000000, 86.776352
1663.000000, 86.721269
1664.000000, 86.600913
1665.000000, 86.392997
1666.000000, 86.090522
1667.000000, 85.716785
1668.000000, 85.262478
1669.000000, 84.682614
1670.000000, 84.004338
1671.000000, 83.169511
1672.000000, 82.220120
1673.000000, 81.222895
1674.000000, 80.176862
1675.000000, 79.078097
1676.000000, 78.001955
1677.000000, 76.964203
1678.000000, 76.005012
1679.000000, 75.192719
1680.000000, 74.531135
1681.000000, 74.030982
1682.000000, 73.747495
1683.000000, 73.705675
1684.000000, 73.891234
1685.000000, 74.319073
1686.000000, 75.003112
1687.000000, 75.927812
1688.000000, 77.039412
1689.000000, 78.326463
1690.000000, 79.660639
1691.000000, 81.063572
1692.000000, 82.500652
1693.000000, 83.843056
1694.000000, 84.981123
1695.000000, 85.876533
1696.000000, 86.444774
1697.000000, 86.594249
1698.000000, 86.323667
1699.000000, 85.635266
1700.000000, 84.500474
1701.000000, 83.003137
1702.000000, 81.284623
1703.000000, 79.343940
1704.000000, 77.322172
1705.000000, 75.337397
1706.000000, 73.427012
1707.000000, 71.626969
1708.000000, 70.107616
1709.000000, 68.873044
1710.000000, 67.943636
1711.000000, 67.300364
1712.000000, 66.991508
1713.000000, 67.040039
1714.000000, 67.359886
1715.000000, 68.052002
1716.000000, 69.042613
1717.000000, 70.327401
1718.000000, 71.850399
1719.000000, 73.537253
1720.000000, 75.378268
1721.000000, 77.302077
1722.000000, 79.142378
1723.000000, 80.839916
1724.000000, 82.287935
1725.000000, 83.410519
1726.000000, 84.134932
1727.000000, 84.436520
1728.000000, 84.327200
1729.000000, 83.786549
1730.000000, 82.870107
1731.000000, 81.668945
1732.000000, 80.230261
1733.000000, 78.659365
1734.000000, 77.066678
1735.000000, 75.464227
1736.000000, 74.020064
1737.000000, 72.731598
1738.000000, 71.652807
1739.000000, 70.788064
1740.000000, 70.173396
1741.000000, 69.792188
1742.000000, 69.696169
1743.000000, 69.874556
1744.000000, 70.253378
1745.000000, 70.907660
1746.000000, 71.783881
1747.000000, 72.845884
1748.000000, 74.039232
1749.000000, 75.326685
1750.000000, 76.628037
1751.000000, 77.897343
1752.000000, 79.064618
1753.000000, 80.076048
1754.000000, 80.843092
1755.000000, 81.381040
1756.000000, 81.648361
1757.000000, 81.613157
1758.000000, 81.326573
1759.000000, 80.811060
1760.000000, 80.106907
1761.000000, 79.226961
1762.000000, 78.343121
1763.000000, 77.370496
1764.000000, 76.465578
1765.000000, 75.683564
1766.000000, 75.042623
1767.000000, 74.510539
1768.000000, 74.167431
1769.000000, 73.955822
1770.000000, 73.933859
1771.000000, 74.134625
1772.000000, 74.466835
1773.000000, 74.971769
1774.000000, 75.578659
1775.000000, 76.271746
1776.000000, 77.015894
1777.000000, 77.807795
1778.000000, 78.522958
1779.000000, 79.165950
1780.000000, 79.765429
1781.000000, 80.162795
1782.000000, 80.408551
1783.000000, 80.482798
1784.000000, 80.314782
1785.000000, 79.926701
1786.000000, 79.354392
1787.000000, 78.683979
1788.000000, 77.867510
1789.000000, 76.960381
1790.000000, 76.073057
1791.000000, 75.189953
1792.000000, 74.376613
1793.000000, 73.682084
1794.000000, 73.164072
1795.000000, 72.752623
1796.000000, 72.541967
1797.000000, 72.510446
1798.000000, 72.645140
1799.000000, 72.964046
1800.000000, 73.533589
1801.000000, 74.262136
1802.000000, 75.056605
1803.000000, 76.037407
1804.000000, 77.076813
1805.000000, 78.100894
1806.000000, 79.133731
1807.000000, 80.136857
1808.000000, 81.008067
1809.000000, 81.668204
1810.000000, 82.092203
1811.000000, 82.315181
1812.000000, 82.313800
1813.000000, 82.048848
1814.000000, 81.558791
1815.000000, 80.823153
1816.000000, 79.959901
1817.000000, 78.973967
1818.000000, 77.770384
1819.000000, 76.579018
1820.000000, 75.346444
1821.000000, 74.328553
1822.000000, 73.344316
1823.000000, 72.288035
1824.000000, 71.475473
1825.000000, 70.787644
1826.000000, 70.348124
1827.000000, 70.162041
1828.000000, 70.166865
1829.000000, 70.390176
1830.000000, 70.758693
1831.000000, 71.403623
1832.000000, 72.294255
1833.000000, 73.310866
1834.000000, 74.415802
1835.000000, 75.576990
1836.000000, 76.766989
1837.000000, 78.073205
1838.000000, 79.468603
1839.000000, 80.816145
1840.000000, 81.916388
1841.000000, 82.823610
1842.000000, 83.452539
1843.000000, 83.956062
1844.000000, 84.039419
1845.000000, 83.781833
1846.000000, 83.398733
1847.000000, 82.747159
1848.000000, 81.886510
1849.000000, 80.813376
1850.000000, 79.540631
1851.000000, 78.304036
1852.000000, 77.326145
1853.000000, 76.338207
1854.000000, 75.384348
1855.000000, 74.484295
1856.000000, 73.726055
1857.000000, 73.092791
1858.000000, 72.682575
1859.000000, 72.480312
1860.000000, 72.494261
1861.000000, 72.733145
1862.000000, 73.131208
1863.000000, 73.681666
1864.000000, 74.431569
1865.000000, 75.230936
1866.000000, 76.175935
1867.000000, 77.250242
1868.000000, 78.386935
1869.000000, 79.535141
1870.000000, 80.739783
1871.000000, 82.022642
1872.000000, 83.128312
1873.000000, 84.043024
1874.000000, 84.811537
1875.000000, 85.352902
1876.000000, 85.633208
1877.000000, 85.623052
1878.000000, 85.343550
1879.000000, 84.875477
1880.000000, 84.134496
1881.000000, 83.292642
1882.000000, 82.375402
1883.000000, 81.384932
1884.000000, 80.345551
1885.000000, 79.338366
1886.000000, 78.354332
1887.000000, 77.451595
1888.000000, 76.719827
1889.000000, 76.098686
1890.000000, 75.614658
1891.000000, 75.314939
1892.000000, 75.189542
1893.000000, 75.254403
1894.000000, 75.504293
1895.000000, 75.866153
1896.000000, 76.350177
1897.000000, 76.979896
1898.000000, 77.694453
1899.000000, 78.537284
1900.000000, 79.599706
1901.000000, 80.770701
1902.000000, 81.885873
1903.000000, 82.923997
1904.000000, 83.846371
1905.000000, 84.753127
1906.000000, 85.558009
1907.000000, 86.323319
1908.000000, 86.917411
1909.000000, 87.273802
1910.000000, 87.346528
1911.000000, 87.241259
1912.000000, 86.951913
1913.000000, 86.497343
1914.000000, 85.906102
1915.000000, 85.160079
1916.000000, 84.312333
1917.000000, 83.492570
1918.000000, 82.628445
1919.000000, 81.898090
1920.000000, 81.198194
1921.000000, 80.537121
1922.000000, 80.005961
1923.000000, 79.541888
1924.000000, 79.255633
1925.000000, 79.102289
1926.000000, 79.090188
1927.000000, 79.228736
1928.000000, 79.522819
1929.000000, 79.947510
1930.000000, 80.511470
1931.000000, 81.181169
1932.000000, 81.877768
1933.000000, 82.648701
1934.000000, 83.436167
1935.000000, 84.270149
1936.000000, 85.127394
1937.000000, 85.969041
1938.000000, 86.683481
1939.000000, 87.343804
1940.000000, 87.919724
1941.000000, 88.331966
1942.000000, 88.606136
1943.000000, 88.723959
1944.000000, 88.677090
1945.000000, 88.423478
1946.000000, 88.068683
1947.000000, 87.604369
1948.000000, 86.976663
1949.000000, 86.237989
1950.000000, 85.567611
1951.000000, 84.797721
1952.000000, 84.036726
1953.000000, 83.387395
1954.000000, 82.799090
1955.000000, 82.249637
1956.000000, 81.836023
1957.000000, 81.534334
1958.000000, 81.360500
1959.000000, 81.318158
1960.000000, 81.414326
1961.000000, 81.648948
1962.000000, 82.013509
1963.000000, 82.479937
1964.000000, 83.040994
1965.000000, 83.738124
1966.000000, 84.507270
1967.000000, 85.261352
1968.000000, 86.059904
1969.000000, 86.864393
1970.000000, 87.660513
1971.000000, 88.356002
1972.000000, 88.940566
1973.000000, 89.450431
1974.000000, 89.857522
1975.000000, 90.092743
1976.000000, 90.181295
1977.000000, 90.123637
1978.000000, 89.890680
1979.000000, 89.507629
1980.000000, 88.986294
1981.000000, 88.340140
1982.000000, 87.573801
1983.000000, 86.735625
1984.000000, 85.873473
1985.000000, 84.992211
1986.000000, 84.123082
1987.000000, 83.294684
1988.000000, 82.543228
1989.000000, 81.878039
1990.000000, 81.309648
1991.000000, 80.857080
1992.000000, 80.561408
1993.000000, 80.403957
1994.000000, 80.406465
1995.000000, 80.568433
1996.000000, 80.879079
1997.000000, 81.338618
1998.000000, 81.929810
1999.000000, 82.638911
2000.000000, 83.492709
2001.000000, 84.429476
2002.000000, 85.420299
2003.000000, 86.490147
2004.000000, 87.536391
2005.000000, 88.551353
2006.000000, 89.537532
2007.000000, 90.418289
2008.000000, 91.158271
2009.000000, 91.742695
2010.000000, 92.150163
2011.000000, 92.370401
2012.000000, 92.375933
2013.000000, 92.161157
2014.000000, 91.734809
2015.000000, 91.115901
2016.000000, 90.294999
2017.000000, 89.300957
2018.000000, 88.213822
2019.000000, 87.019660
2020.000000, 85.755739
2021.000000, 84.443538
2022.000000, 83.116775
2023.000000, 81.831230
2024.000000, 80.626321
2025.000000, 79.539766
2026.000000, 78.521972
2027.000000, 77.622159
2028.000000, 76.901720
2029.000000, 76.342909
2030.000000, 75.966202
2031.000000, 75.723343
2032.000000, 75.659017
2033.000000, 75.808172
2034.000000, 76.138028
2035.000000, 76.612474
2036.000000, 77.253755
2037.000000, 78.063154
2038.000000, 79.014461
2039.000000, 80.123010
2040.000000, 81.319104
2041.000000, 82.606262
2042.000000, 83.983016
2043.000000, 85.336908
2044.000000, 86.652684
2045.000000, 87.940719
2046.000000, 89.172828
2047.000000, 90.247695
2048.000000, 91.146288
2049.000000, 91.835334
2050.000000, 92.309958
2051.000000, 92.586657
2052.000000, 92.621080
2053.000000, 92.359345
2054.000000, 91.809251
2055.000000, 91.062291
2056.000000, 90.126102
2057.000000, 89.024751
2058.000000, 87.820748
2059.000000, 86.459720
2060.000000, 84.987532
2061.000000, 83.573818
2062.000000, 82.145943
2063.000000, 80.764433
2064.000000, 79.428813
2065.000000, 78.172162
2066.000000, 77.018656
2067.000000, 76.017752
2068.000000, 75.178843
2069.000000, 74.493030
2070.000000, 73.955421
2071.000000, 73.575625
2072.000000, 73.389170
2073.000000, 73.385395
2074.000000, 73.539892
2075.000000, 73.862908
2076.000000, 74.368445
2077.000000, 75.031952
2078.000000, 75.819926
2079.000000, 76.750005
2080.000000, 77.831777
2081.000000, 78.985952
2082.000000, 80.251267
2083.000000, 81.560404
2084.000000, 82.842336
2085.000000, 84.163658
2086.000000, 85.471422
2087.000000, 86.684510
2088.000000, 87.828212
2089.000000, 88.778206
2090.000000, 89.585845
2091.000000, 90.204102
2092.000000, 90.634775
2093.000000, 90.860941
2094.000000, 90.870998
2095.000000, 90.639930
2096.000000, 90.173744
2097.000000, 89.535444
2098.000000, 88.745359
2099.000000, 87.815819
2100.000000, 86.671976
2101.000000, 85.487394
2102.000000, 84.244532
2103.000000, 82.990807
2104.000000, 81.753224
2105.000000, 80.462015
2106.000000, 79.213095
2107.000000, 78.097930
2108.000000, 77.087637
2109.000000, 76.221942
2110.000000, 75.398497
2111.000000, 74.734777
2112.000000, 74.227685
2113.000000, 73.897361
2114.000000, 73.680274
2115.000000, 73.598427
2116.000000, 73.669151
2117.000000, 73.889929
2118.000000, 74.259758
2119.000000, 74.727810
2120.000000, 75.340186
2121.000000, 76.051578
2122.000000, 76.877457
2123.000000, 77.767092
2124.000000, 78.714005
2125.000000, 79.732545
2126.000000, 80.762468
2127.000000, 81.786615
2128.000000, 82.820817
2129.000000, 83.812371
2130.000000, 84.765664
2131.000000, 85.619305
2132.000000, 86.390526
2133.000000, 87.011052
2134.000000, 87.494321
2135.000000, 87.860911
2136.000000, 88.044933
2137.000000, 88.088236
2138.000000, 87.949966
2139.000000, 87.674900
2140.000000, 87.239037
2141.000000, 86.727376
2142.000000, 86.053516
2143.000000, 85.284880
2144.000000, 84.387256
2145.000000, 83.517391
2146.000000, 82.620500
2147.000000, 81.738034
2148.000000, 80.852316
2149.000000, 79.984239
2150.000000, 79.147731
2151.000000, 78.409228
2152.000000, 77.756742
2153.000000, 77.206281
2154.000000, 76.691389
2155.000000, 76.316531
2156.000000, 76.036911
2157.000000, 75.907497
2158.000000, 75.869572
2159.000000, 75.900129
2160.000000, 76.034931
2161.000000, 76.268557
2162.000000, 76.624542
2163.000000, 77.071649
2164.000000, 77.528236
2165.000000, 78.076973
2166.000000, 78.700547
2167.000000, 79.350842
2168.000000, 80.045620
2169.000000, 80.738784
2170.000000, 81.439114
2171.000000, 82.124654
2172.000000, 82.740745
2173.000000, 83.341992
2174.000000, 83.870446
2175.000000, 84.301806
2176.000000, 84.669296
2177.000000, 84.937178
2178.000000, 85.096946
2179.000000, 85.196461
2180.000000, 85.169217
2181.000000, 85.073058
2182.000000, 84.856800
2183.000000, 84.588169
2184.000000, 84.283416
2185.000000, 83.860224
2186.000000, 83.476237
2187.000000, 83.053066
2188.000000, 82.593759
2189.000000, 82.215744
2190.000000, 81.847051
2191.000000, 81.490303
2192.000000, 81.160805
2193.000000, 80.968958
2194.000000, 80.825535
2195.000000, 80.804935
2196.000000, 80.782180
2197.000000, 80.921034
2198.000000, 81.199704
2199.000000, 81.574561
2200.000000, 82.053809
2200.900000, 82.462663
2201.710000, 82.871517
2202.510000, 83.279671
2203.320000, 83.682525
2204.120000, 84.069379
2204.920000, 84.428634
2205.730000, 84.764588
2206.530000, 85.080942
2207.330000, 85.348196
2208.140000, 85.573050
2208.940000, 85.752404
2209.740000, 85.875858
2210.550000, 85.943212
2211.350000, 85.971766
2212.150000, 85.959421
2212.960000, 85.883275
2213.760000, 85.747429
2214.560000, 85.554783
2215.370000, 85.296037
2216.170000, 84.995591
2216.980000, 84.663645
2217.780000, 84.285299
2218.580000, 83.872353
2219.390000, 83.439908
2220.190000, 82.978662
2220.990000, 82.474416
2221.800000, 81.976070
2222.600000, 81.483124
2223.400000, 80.962678
2224.210000, 80.455832
2225.010000, 79.962586
2225.810000, 79.493641
2226.620000, 79.044895
2227.420000, 78.603349
2228.220000, 78.194703
2229.030000, 77.825457
2229.830000, 77.492511
2230.640000, 77.203065
2231.440000, 76.942719
2232.240000, 76.716673
2233.050000, 76.552428
2233.850000, 76.434482
2234.650000, 76.346736
2235.460000, 76.309290
2236.260000, 76.319544
2237.060000, 76.378798
2237.870000, 76.467652
2238.670000, 76.592206
2239.470000, 76.765761
2240.280000, 76.991215
2241.080000, 77.265469
2241.890000, 77.565123
2242.690000, 77.875977
2243.490000, 78.205331
2244.300000, 78.550985
2245.100000, 78.918839
2245.900000, 79.318893
2246.710000, 79.726648
2247.510000, 80.127702
2248.310000, 80.534256
2249.120000, 80.929010
2249.920000, 81.296364
2250.720000, 81.652318
2251.530000, 82.004372
2252.330000, 82.324626
2253.130000, 82.596380
2253.940000, 82.839035
2254.740000, 83.057289
2255.550000, 83.224343
2256.350000, 83.338597
2257.150000, 83.408751
2257.960000, 83.421505
2258.760000, 83.396959
2259.560000, 83.335913
2260.370000, 83.214468
2261.170000, 83.039122
2261.970000, 82.826276
2262.780000, 82.574230
2263.580000, 82.281584
2264.380000, 81.949038
2265.190000, 81.579192
2265.990000, 81.191946
2266.800000, 80.793300
2267.600000, 80.362055
2268.400000, 79.914909
2269.210000, 79.471463
2270.010000, 79.025917
2270.810000, 78.581071
2271.620000, 78.159025
2272.420000, 77.736379
2273.220000, 77.318233
2274.030000, 76.922488
2274.830000, 76.545142
2275.630000, 76.200296
2276.440000, 75.881950
2277.240000, 75.594504
2278.040000, 75.348058
2278.850000, 75.132612
2279.650000, 74.950266
2280.460000, 74.803920
2281.260000, 74.702475
2282.060000, 74.643829
2282.870000, 74.616383
2283.670000, 74.636337
2284.470000, 74.697491
2285.280000, 74.795645
2286.080000, 74.925399
2286.880000, 75.091553
2287.690000, 75.295707
2288.490000, 75.526962
2289.290000, 75.788216
2290.100000, 76.068970
2290.900000, 76.364724
2291.700000, 76.691778
2292.510000, 77.038232
2293.310000, 77.392386
2294.120000, 77.756340
2294.920000, 78.127395
2295.720000, 78.506649
2296.530000, 78.892003
2297.330000, 79.257057
2298.130000, 79.602411
2298.940000, 79.937465
2299.740000, 80.243819
2300.540000, 80.525473
2301.350000, 80.794327
2302.150000, 81.036682
2302.950000, 81.236536
2303.760000, 81.405290
2304.560000, 81.533144
2305.370000, 81.610398
2306.170000, 81.656152
2306.970000, 81.662806
2307.780000, 81.630860
2308.580000, 81.559615
2309.380000, 81.444469
2310.190000, 81.283423
2310.990000, 81.090177
2311.790000, 80.859831
2312.600000, 80.602985
2313.400000, 80.323439
2314.200000, 80.017793
2315.010000, 79.691447
2315.810000, 79.343402
2316.610000, 78.978356
2317.420000, 78.597510
2318.220000, 78.222964
2319.030000, 77.856818
2319.830000, 77.481672
2320.630000, 77.106326
2321.440000, 76.747980
2322.240000, 76.409935
2323.040000, 76.085289
2323.850000, 75.772743
2324.650000, 75.479097
2325.450000, 75.212851
2326.260000, 74.985105
2327.060000, 74.783059
2327.860000, 74.596613
2328.670000, 74.449767
2329.470000, 74.344722
2330.270000, 74.263876
2331.080000, 74.205730
2331.880000, 74.186184
2332.690000, 74.204338
2333.490000, 74.271392
2334.290000, 74.360946
2335.100000, 74.477300
2335.900000, 74.622954
2336.700000, 74.799809
2337.510000, 75.010163
2338.310000, 75.241117
2339.110000, 75.487671
2339.920000, 75.758625
2340.720000, 76.051679
2341.520000, 76.360233
2342.330000, 76.674087
2343.130000, 76.996842
2343.940000, 77.326596
2344.740000, 77.657650
2345.540000, 77.986304
2346.350000, 78.311758
2347.150000, 78.621712
2347.950000, 78.915466
2348.760000, 79.205620
2349.560000, 79.478574
2350.360000, 79.714229
2351.170000, 79.922283
2351.970000, 80.106137
2352.770000, 80.269591
2353.580000, 80.387945
2354.380000, 80.473299
2355.180000, 80.528053
2355.990000, 80.546507
2356.790000, 80.526862
2357.600000, 80.477016
2358.400000, 80.380670
2359.200000, 80.241024
2360.010000, 80.066378
2360.810000, 79.873332
2361.610000, 79.677162
2362.420000, 79.452993
2363.220000, 79.214323
2364.020000, 78.953053
2364.830000, 78.659484
2365.630000, 78.358614
2366.430000, 78.051644
2367.240000, 77.732175
2368.040000, 77.392405
2368.850000, 77.047935
2369.650000, 76.713466
2370.450000, 76.383996
2371.260000, 76.068126
2372.060000, 75.764757
2372.860000, 75.467687
2373.670000, 75.186217
2374.470000, 74.933447
2375.270000, 74.690778
2376.080000, 74.463608
2376.880000, 74.273038
2377.680000, 74.119069
2378.490000, 73.996399
2379.290000, 73.892929
2380.090000, 73.819160
2380.900000, 73.778690
2381.700000, 73.768520
2382.510000, 73.789351
2383.310000, 73.847281
2384.110000, 73.941211
2384.920000, 74.063942
2385.720000, 74.208172
2386.520000, 74.384502
2387.330000, 74.592833
2388.130000, 74.837263
2388.930000, 75.104393
2389.740000, 75.392323
2390.540000, 75.699754
2391.340000, 76.027184
2392.150000, 76.374814
2392.950000, 76.736245
2393.750000, 77.114775
2394.560000, 77.504705
2395.360000, 77.895736
2396.170000, 78.290166
2396.970000, 78.689496
2397.770000, 79.077227
2398.580000, 79.454257
2399.380000, 79.828487
2400.180000, 80.189818
2400.990000, 80.529948
2401.790000, 80.852678
2402.590000, 81.157009
2403.400000, 81.440839
2404.200000, 81.689769
2405.000000, 81.908799
2405.810000, 82.091830
2406.610000, 82.238960
2407.420000, 82.357990
2408.220000, 82.431321
2409.020000, 82.473351
2409.830000, 82.485181
2410.630000, 82.458512
2411.430000, 82.386042
2412.240000, 82.279572
2413.040000, 82.147803
2413.840000, 81.986333
2414.650000, 81.793763
2415.450000, 81.567494
2416.250000, 81.315624
2417.060000, 81.038254
2417.860000, 80.748085
2418.660000, 80.445215
2419.470000, 80.130245
2420.270000, 79.805675
2421.080000, 79.472806
2421.880000, 79.134636
2422.680000, 78.789466
2423.490000, 78.450297
2424.290000, 78.120927
2425.090000, 77.803557
2425.900000, 77.501488
2426.700000, 77.215018
2427.500000, 76.942248
2428.310000, 76.690079
2429.110000, 76.460709
2429.910000, 76.245539
2430.720000, 76.055170
2431.520000, 75.896100
2432.320000, 75.768330
2433.130000, 75.667160
2433.930000, 75.589591
2434.740000, 75.551121
2435.540000, 75.546151
2436.340000, 75.564282
2437.150000, 75.605412
2437.950000, 75.679342
2438.750000, 75.799573
2439.560000, 75.948203
2440.360000, 76.113033
2441.160000, 76.300564
2441.970000, 76.516394
2442.770000, 76.771424
2443.570000, 77.056755
2444.380000, 77.355185
2445.180000, 77.664715
2445.990000, 77.999546
2446.790000, 78.350976
2447.590000, 78.699306
2448.400000, 79.057536
2449.200000, 79.435167
2450.000000, 79.818997
2450.810000, 80.203327
2451.610000, 80.590058
2452.410000, 80.965788
2453.220000, 81.334118
2454.020000, 81.702149
2454.820000, 82.061279
2455.630000, 82.402609
2456.430000, 82.724740
2457.230000, 83.023170
2458.040000, 83.298800
2458.840000, 83.547931
2459.650000, 83.769961
2460.450000, 83.964191
2461.250000, 84.127322
2462.060000, 84.266452
2462.860000, 84.377482
2463.660000, 84.448112
2464.470000, 84.480843
2465.270000, 84.472973
2466.070000, 84.429503
2466.880000, 84.360334
2467.680000, 84.265264
2468.480000, 84.138994
2469.290000, 83.979025
2470.090000, 83.793955
2470.890000, 83.589385
2471.700000, 83.368216
2472.500000, 83.119946
2473.310000, 82.838176
2474.110000, 82.544407
2474.910000, 82.246737
2475.720000, 81.942367
2476.520000, 81.642898
2477.320000, 81.346328
2478.130000, 81.043358
2478.930000, 80.737488
2479.730000, 80.435019
2480.540000, 80.134549
2481.340000, 79.838279
2482.140000, 79.556410
2482.950000, 79.305640
2483.750000, 79.086070
2484.560000, 78.865201
2485.360000, 78.646631
2486.160000, 78.463561
2486.970000, 78.316892
2487.770000, 78.195622
2488.570000, 78.086152
2489.380000, 78.002283
2490.180000, 77.954113
2490.980000, 77.923143
2491.790000, 77.915374
2492.590000, 77.944104
2493.390000, 78.002734
2494.200000, 78.101864
2495.000000, 78.228595
2495.800000, 78.357725
2496.610000, 78.505255
2497.410000, 78.685286
2498.220000, 78.891016
2499.020000, 79.121346
2499.820000, 79.374577
2500.630000, 79.649807
2501.430000, 79.950937
2502.230000, 80.276268
2503.040000, 80.608298
2503.840000, 80.930928
2504.640000, 81.259259
2505.450000, 81.615889
2506.250000, 81.976819
2507.050000, 82.308550
2507.860000, 82.641680
2508.660000, 82.994310
2509.470000, 83.344340
2510.270000, 83.676071
2511.070000, 83.996101
2511.880000, 84.298231
2512.680000, 84.578862
2513.480000, 84.845692
2514.290000, 85.110522
2515.090000, 85.364753
2515.890000, 85.575183
2516.700000, 85.742913
2517.500000, 85.887144
2518.300000, 86.000674
2519.110000, 86.092104
2519.910000, 86.146835
2520.710000, 86.156265
2521.520000, 86.150295
2522.320000, 86.133626
2523.130000, 86.107056
2523.930000, 86.060486
2524.730000, 85.936916
2525.540000, 85.771647
2526.340000, 85.603977
2527.140000, 85.415407
2527.950000, 85.187938
2528.750000, 84.949768
2529.550000, 84.716398
2530.360000, 84.489529
2531.160000, 84.280159
2531.960000, 84.038889
2532.770000, 83.728520
2533.570000, 83.376450
2534.370000, 83.044580
2535.180000, 82.813411
2535.980000, 82.586541
2536.790000, 82.237671
2537.590000, 81.872202
2538.390000, 81.599932
2539.200000, 81.349662
2540.000000, 81.098492
2540.800000, 80.889523
2541.610000, 80.745353
2542.410000, 80.646583
2543.210000, 80.524314
2544.020000, 80.367444
2544.820000, 80.216174
2545.620000, 80.056505
2546.430000, 79.966635
2547.230000, 80.003365
2548.040000, 80.079296
2548.840000, 80.041226
2549.640000, 79.992356
2550.450000, 80.050187
2551.250000, 80.166417
2552.050000, 80.296447
2552.860000, 80.470078
2553.660000, 80.611008
2554.460000, 80.703638
2555.270000, 80.856368
2556.070000, 81.067599
2556.870000, 81.317529
2557.680000, 81.602659
2558.480000, 81.914090
2559.280000, 82.274120
2560.090000, 82.729250
2560.890000, 83.257681
2561.700000, 83.702611
2562.500000, 84.044841
2563.300000, 84.347472
2564.110000, 84.657502
2564.910000, 85.005832
2565.710000, 85.255863
2566.520000, 85.451193
2567.320000, 85.751923
2568.120000, 86.148253
2568.930000, 86.586684
2569.730000, 86.996414
2570.530000, 87.193444
2571.340000, 87.283375
2572.140000, 87.461005
2572.940000, 87.779335
2573.750000, 88.112366
2574.550000, 88.263196
2575.360000, 88.318326
2576.160000, 88.435257
2576.960000, 88.530687
2577.770000, 88.422517
2578.570000, 88.259848
2579.370000, 88.205078
2580.180000, 88.234408
2580.980000, 88.270639
2581.780000, 88.125669
2582.590000, 87.981199
2583.390000, 87.978629
2584.190000, 87.732960
2585.000000, 87.119290
2585.800000, 86.776820
2586.610000, 86.633951
2587.410000, 86.415781
2588.210000, 85.980211
2589.020000, 85.527242
2589.820000, 84.986472
2590.620000, 84.462602
2591.430000, 84.108833
2592.230000, 83.854363
2593.030000, 83.603293
2593.840000, 83.424124
2594.640000, 83.269854
2595.440000, 82.681384
2596.250000, 81.893815
2597.050000, 81.338345
2597.850000, 80.888775
2598.660000, 80.451805
2599.460000, 80.107836
2600.270000, 79.882466
2601.070000, 79.718296
2601.870000, 79.481027
2602.680000, 79.255057
2603.480000, 79.172787
2604.280000, 79.118018
2605.090000, 78.984248
2605.890000, 78.727778
2606.690000, 78.515309
2607.500000, 78.372839
2608.300000, 78.226669
2609.100000, 78.167500
2609.910000, 78.175730
2610.710000, 78.160860
2611.520000, 78.193291
2612.320000, 78.338021
2613.120000, 78.550851
2613.930000, 78.722681
2614.730000, 78.896912
2615.530000, 79.160742
2616.340000, 79.584972
2617.140000, 80.165203
2617.940000, 80.475433
2618.750000, 80.585063
2619.550000, 80.814294
2620.350000, 81.288924
2621.160000, 81.741354
2621.960000, 81.983085
2622.760000, 82.252915
2623.570000, 82.637945
2624.370000, 83.098176
2625.180000, 83.587306
2625.980000, 84.148636
2626.780000, 84.866367
2627.590000, 85.444497
2628.390000, 85.775327
2629.190000, 86.219157
2630.000000, 86.914688
2630.800000, 87.668518
2631.600000, 87.954048
2632.410000, 88.115579
2633.210000, 88.429309
2634.010000, 88.805539
2634.820000, 89.042570
2635.620000, 89.187900
2636.420000, 89.380330
2637.230000, 89.593061
2638.030000, 89.781591
2638.840000, 89.935921
2639.640000, 90.054152
2640.440000, 90.152082
2641.250000, 90.243112
2642.050000, 90.261243
2642.850000, 90.126673
2643.660000, 89.934503
2644.460000, 89.817733
2645.260000, 89.734264
2646.070000, 89.506294
2646.870000, 89.082824
2647.670000, 88.642155
2648.480000, 88.229985
2649.280000, 87.809215
2650.090000, 87.393646
2650.890000, 87.034176
2651.690000, 86.741506
2652.500000, 86.276137
2653.300000, 85.534467
2654.100000, 84.934397
2654.910000, 84.466628
2655.710000, 83.839358
2656.510000, 83.095088
2657.320000, 82.488519
2658.120000, 81.991949
2658.920000, 81.578779
2659.730000, 81.078009
2660.530000, 80.385740
2661.330000, 79.783670
2662.140000, 79.218900
2662.940000, 78.690331
2663.750000, 78.361561
2664.550000, 78.174591
2665.350000, 77.886322
2666.160000, 77.411152
2666.960000, 76.814782
2667.760000, 76.163313
2668.570000, 75.759843
2669.370000, 75.579073
2670.170000, 75.374804
2670.980000, 74.771534
2671.780000, 74.359064
2672.580000, 74.203895
2673.390000, 74.075025
2674.190000, 73.976255
2674.990000, 73.959185
2675.800000, 74.049216
2676.600000, 74.210046
2677.410000, 74.210976
2678.210000, 74.007507
2679.010000, 73.850537
2679.820000, 73.738967
2680.620000, 73.623198
2681.420000, 73.563228
2682.230000, 73.598458
2683.030000, 73.698589
2683.830000, 73.726419
2684.640000, 73.615049
2685.440000, 73.504380
2686.240000, 73.406510
2687.050000, 73.188740
2687.850000, 72.930671
2688.660000, 72.693201
2689.460000, 72.390031
2690.260000, 72.073661
2691.070000, 71.835292
2691.870000, 71.664022
2692.670000, 71.594452
2693.480000, 71.616383
2694.280000, 71.567113
2695.080000, 71.354643
2695.890000, 71.002774
2696.690000, 70.565804
2697.490000, 70.223634
2698.300000, 69.970965
2699.100000, 69.744695
2699.900000, 69.558425
2700.710000, 69.392756
2701.510000, 69.098186
2702.320000, 68.729916
2703.120000, 68.457947
2703.920000, 68.236977
2704.730000, 68.023907
2705.530000, 67.800537
2706.330000, 67.564268
2707.140000, 67.352798
2707.940000, 67.219828
2708.740000, 67.135059
2709.550000, 66.970489
2710.350000, 66.670019
2711.150000, 66.221450
2711.960000, 65.691980
2712.760000, 65.282310
2713.570000, 64.950341
2714.370000, 64.591271
2715.170000, 64.220701
2715.980000, 63.896532
2716.780000, 63.627362
2717.580000, 63.339492
2718.390000, 63.013122
2719.190000, 62.782753
2719.990000, 62.644483
2720.800000, 62.146813
2721.600000, 61.279444
2722.400000, 60.792874
2723.210000, 60.578904
2724.010000, 60.375535
2724.810000, 59.940065
2725.620000, 59.254695
2726.420000, 58.650226
2727.230000, 58.202456
2728.030000, 57.820886
2728.830000, 57.445317
2729.640000, 57.077447
2730.440000, 56.731377
2731.240000, 56.411708
2732.050000, 56.107238
2732.850000, 55.822968
2733.650000, 55.600498
2734.460000, 55.403329
2735.260000, 55.119159
2736.060000, 54.805389
2736.870000, 54.604620
2737.670000, 54.523750
2738.470000, 54.555380
2739.280000, 54.674911
2740.080000, 54.690441
2740.890000, 54.548471
2741.690000, 54.336802
2742.490000, 54.088632
2743.300000, 53.916862
2744.100000, 53.866893
2744.900000, 53.913123
2745.710000, 54.004253
2746.510000, 54.093384
2747.310000, 54.203614
2748.120000, 54.376544
2748.920000, 54.591174
2749.720000, 54.809405
2750.530000, 55.051235
2751.330000, 55.369065
2752.140000, 55.743396
2752.940000, 56.079026
2753.740000, 56.380556
2754.550000, 56.760887
2755.350000, 57.385617
2756.150000, 58.047847
2756.960000, 58.391778
2757.760000, 58.675008
2758.560000, 59.025138
2759.370000, 59.435469
2760.170000, 59.894899
2760.970000, 60.387829
2761.780000, 60.926360
2762.580000, 61.570290
2763.380000, 62.295620
2764.190000, 62.926050
2764.990000, 63.416581
2765.800000, 63.898811
2766.600000, 64.481541
2767.400000, 65.144672
2768.210000, 65.817102
2769.010000, 66.410132
2769.810000, 66.964063
2770.620000, 67.665493
2771.420000, 68.483023
2772.220000, 69.199054
2773.030000, 69.765884
2773.830000, 70.241414
2774.630000, 70.732145
2775.440000, 71.298475
2776.240000, 71.918205
2777.040000, 72.548336
2777.850000, 73.119266
2778.650000, 73.579796
2779.460000, 73.959426
2780.260000, 74.330157
2781.060000, 74.752687
2781.870000, 75.172217
2782.670000, 75.473148
2783.470000, 75.661678
2784.280000, 75.800208
2785.080000, 75.946839
2785.880000, 76.147269
2786.690000, 76.402899
2787.490000, 76.598530
2788.290000, 76.579560
2789.100000, 76.417490
2789.900000, 76.264121
2790.710000, 76.129951
2791.510000, 75.982681
2792.310000, 75.827312
2793.120000, 75.655442
2793.920000, 75.442072
2794.720000, 75.208802
2795.530000, 74.968733
2796.330000, 74.708863
2797.130000, 74.423793
2797.940000, 74.103524
2798.740000, 73.760154
2799.540000, 73.434884
2800.350000, 73.150615
2801.150000, 72.915345
2801.950000, 72.724875
2802.760000, 72.520506
2803.560000, 72.171436
2804.370000, 71.644166
2805.170000, 71.134097
2805.970000, 70.733527
2806.780000, 70.374757
2807.580000, 70.033788
2808.380000, 69.708818
2809.190000, 69.372748
2809.990000, 69.045478
2810.790000, 68.756509
2811.600000, 68.494239
2812.400000, 68.258469
2813.200000, 68.067100
2814.010000, 67.914730
2814.810000, 67.761560
2815.610000, 67.575291
2816.420000, 67.388321
2817.220000, 67.259151
2818.030000, 67.203882
2818.830000, 67.196412
2819.630000, 67.201242
2820.440000, 67.200973
2821.240000, 67.185903
2822.040000, 67.153333
2822.850000, 67.130164
2823.650000, 67.147994
2824.450000, 67.218724
2825.260000, 67.335654
2826.060000, 67.492085
2826.860000, 67.690915
2827.670000, 67.918345
2828.470000, 68.136676
2829.280000, 68.341706
2830.080000, 68.573536
2830.880000, 68.856667
2831.690000, 69.185897
2832.490000, 69.547927
2833.290000, 69.937558
2834.100000, 70.352888
2834.900000, 70.774918
2835.700000, 71.180049
2836.510000, 71.579579
2837.310000, 72.013409
2838.110000, 72.492040
2838.920000, 72.957670
2839.720000, 73.371600
2840.520000, 73.785730
2841.330000, 74.251561
2842.130000, 74.753791
2842.940000, 75.254321
2843.740000, 75.745352
2844.540000, 76.239782
2845.350000, 76.748112
2846.150000, 77.265343
2846.950000, 77.779173
2847.760000, 78.287103
2848.560000, 78.798134
2849.360000, 79.308064
2850.170000, 79.775794
2850.970000, 80.181725
2851.770000, 80.573155
2852.580000, 80.993585
2853.380000, 81.443116
2854.190000, 81.891246
2854.990000, 82.279076
2855.790000, 82.565506
2856.600000, 82.782037
2857.400000, 82.985267
2858.200000, 83.196397
2859.010000, 83.407528
2859.810000, 83.597858
2860.610000, 83.742588
2861.420000, 83.836219
2862.220000, 83.895049
2863.020000, 83.931679
2863.830000, 83.945110
2864.630000, 83.932440
2865.430000, 83.899870
2866.240000, 83.847101
2867.040000, 83.754131
2867.850000, 83.609461
2868.650000, 83.426891
2869.450000, 83.223822
2870.260000, 83.015252
2871.060000, 82.802182
2871.860000, 82.558513
2872.670000, 82.264543
2873.470000, 81.931573
2874.270000, 81.580604
2875.080000, 81.225834
2875.880000, 80.878264
2876.680000, 80.539895
2877.490000, 80.190825
2878.290000, 79.809655
2879.090000, 79.409286
2879.900000, 79.015616
2880.700000, 78.634446
2881.510000, 78.258577
2882.310000, 77.887807
2883.110000, 77.526837
2883.920000, 77.165167
2884.720000, 76.789498
2885.520000, 76.414328
2886.330000, 76.066058
2887.130000, 75.742889
2887.930000, 75.421019
2888.740000, 75.093849
2889.540000, 74.779280
2890.340000, 74.488410
2891.150000, 74.215440
2891.950000, 73.955071
2892.760000, 73.709601
2893.560000, 73.483531
2894.360000, 73.278362
2895.170000, 73.093692
2895.970000, 72.928822
2896.770000, 72.784353
2897.580000, 72.662583
2898.380000, 72.567713
2899.180000, 72.508343
2899.990000, 72.485874
2900.790000, 72.472704
2901.590000, 72.435434
2902.400000, 72.389365
2903.200000, 72.374695
2904.000000, 72.404425
2904.810000, 72.462156
2905.610000, 72.530586
2906.420000, 72.610516
2907.220000, 72.711447
2908.020000, 72.837277
2908.830000, 72.984807
2909.630000, 73.149138
2910.430000, 73.326368
2911.240000, 73.515598
2912.040000, 73.717329
2912.840000, 73.933359
2913.650000, 74.166889
2914.450000, 74.416719
2915.250000, 74.676750
2916.060000, 74.943280
2916.860000, 75.217110
2917.660000, 75.496741
2918.470000, 75.780971
2919.270000, 76.073001
2920.080000, 76.375832
2920.880000, 76.689962
2921.680000, 77.017192
2922.490000, 77.356923
2923.290000, 77.697253
2924.090000, 78.016783
2924.900000, 78.306114
2925.700000, 78.581844
2926.500000, 78.864574
2927.310000, 79.156305
2928.110000, 79.448335
2928.910000, 79.733765
2929.720000, 80.007995
2930.520000, 80.268126
2931.330000, 80.514056
2932.130000, 80.748286
2932.930000, 80.970217
2933.740000, 81.176647
2934.540000, 81.366277
2935.340000, 81.540108
2936.150000, 81.696938
2936.950000, 81.835868
2937.750000, 81.957799
2938.560000, 82.060329
2939.360000, 82.140459
2940.160000, 82.197590
2940.970000, 82.233620
2941.770000, 82.253550
2942.570000, 82.260881
2943.380000, 82.249411
2944.180000, 82.209441
2944.990000, 82.143571
2945.790000, 82.065502
2946.590000, 81.980132
2947.400000, 81.874262
2948.200000, 81.733793
2949.000000, 81.562723
2949.810000, 81.377353
2950.610000, 81.187584
2951.410000, 80.994614
2952.220000, 80.796844
2953.020000, 80.591575
2953.820000, 80.373205
2954.630000, 80.135135
2955.430000, 79.881066
2956.240000, 79.621396
2957.040000, 79.362626
2957.840000, 79.103857
2958.650000, 78.841887
2959.450000, 78.576717
2960.250000, 78.311447
2961.060000, 78.047578
2961.860000, 77.783308
2962.660000, 77.516838
2963.470000, 77.249469
2964.270000, 76.985499
2965.070000, 76.729929
2965.880000, 76.486060
2966.680000, 76.253790
2967.480000, 76.031520
2968.290000, 75.818451
2969.090000, 75.614081
2969.900000, 75.416611
2970.700000, 75.225642
2971.500000, 75.039272
2972.310000, 74.858802
2973.110000, 74.691333
2973.910000, 74.541663
2974.720000, 74.407993
2975.520000, 74.287423
2976.320000, 74.178654
2977.130000, 74.081984
2977.930000, 74.000214
2978.730000, 73.936045
2979.540000, 73.885975
2980.340000, 73.844505
2981.140000, 73.814036
2981.950000, 73.801866
2982.750000, 73.809996
2983.560000, 73.834827
2984.360000, 73.870557
2985.160000, 73.912287
2985.970000, 73.961618
2986.770000, 74.022948
2987.570000, 74.099578
2988.380000, 74.192909
2989.180000, 74.302339
2989.980000, 74.424869
2990.790000, 74.557099
2991.590000, 74.698130
2992.390000, 74.848660
2993.200000, 75.008790
2994.000000, 75.177321
2994.810000, 75.353551
2995.610000, 75.539281
2996.410000, 75.733512
2997.220000, 75.927342
2998.020000, 76.116172
2998.820000, 76.306403
2999.630000, 76.505333
3000.430000, 76.712163
3001.230000, 76.922294
3002.040000, 77.132924
3002.840000, 77.344054
3003.640000, 77.556784
3004.450000, 77.773015
3005.250000, 77.992345
3006.050000, 78.208775
3006.860000, 78.413206
3007.660000, 78.604536
3008.470000, 78.785066
3009.270000, 78.956997
3010.070000, 79.122027
3010.880000, 79.282157
3011.680000, 79.437588
3012.480000, 79.585918
3013.290000, 79.722748
3014.090000, 79.845479
3014.890000, 79.955309
3015.700000, 80.054839
3016.500000, 80.144870
3017.300000, 80.225500
3018.110000, 80.294530
3018.910000, 80.348860
3019.710000, 80.388491
3020.520000, 80.415521
3021.320000, 80.429851
3022.130000, 80.426582
3022.930000, 80.400612
3023.730000, 80.352742
3024.540000, 80.290473
3025.340000, 80.219103
3026.140000, 80.136233
3026.950000, 80.039464
3027.750000, 79.929294
3028.550000, 79.807424
3029.360000, 79.674355
3030.160000, 79.531285
3030.960000, 79.381315
3031.770000, 79.226546
3032.570000, 79.064676
3033.380000, 78.891506
3034.180000, 78.706536
3034.980000, 78.513167
3035.790000, 78.314797
3036.590000, 78.112427
3037.390000, 77.904658
3038.200000, 77.689588
3039.000000, 77.467818
3039.800000, 77.242349
3040.610000, 77.016079
3041.410000, 76.791009
3042.210000, 76.570340
3043.020000, 76.355770
3043.820000, 76.143600
3044.620000, 75.931531
3045.430000, 75.720561
3046.230000, 75.514491
3047.040000, 75.316322
3047.840000, 75.125752
3048.640000, 74.939582
3049.450000, 74.756012
3050.250000, 74.581843
3051.050000, 74.424773
3051.860000, 74.277403
3052.660000, 74.133534
3053.460000, 73.995164
3054.270000, 73.865394
3055.070000, 73.744325
3055.870000, 73.630555
3056.680000, 73.524585
3057.480000, 73.428116
3058.280000, 73.342946
3059.090000, 73.270476
3059.890000, 73.211107
3060.700000, 73.164037
3061.500000, 73.128067
3062.300000, 73.102998
3063.110000, 73.089328
3063.910000, 73.088458
3064.710000, 73.102488
3065.520000, 73.133919
3066.320000, 73.178449
3067.120000, 73.231579
3067.930000, 73.292110
3068.730000, 73.364040
3069.530000, 73.451670
3070.340000, 73.556001
3071.140000, 73.672731
3071.950000, 73.796361
3072.750000, 73.922292
3073.550000, 74.050122
3074.360000, 74.185352
3075.160000, 74.332583
3075.960000, 74.492013
3076.770000, 74.660743
3077.570000, 74.836474
3078.370000, 75.020004
3079.180000, 75.214734
3079.980000, 75.420064
3080.780000, 75.631595
3081.590000, 75.842725
3082.390000, 76.048055
3083.190000, 76.248186
3084.000000, 76.448716
3084.800000, 76.655746
3085.610000, 76.870277
3086.410000, 77.088607
3087.210000, 77.306937
3088.020000, 77.523968
3088.820000, 77.740398
3089.620000, 77.955628
3090.430000, 78.167459
3091.230000, 78.372089
3092.030000, 78.568719
3092.840000, 78.757650
3093.640000, 78.936780
3094.440000, 79.106310
3095.250000, 79.268040
3096.050000, 79.423271
3096.860000, 79.571401
3097.660000, 79.710831
3098.460000, 79.838562
3099.270000, 79.952892
3100.070000, 80.052122
3100.870000, 80.137653
3101.680000, 80.212383
3102.480000, 80.279013
3103.280000, 80.337644
3104.090000, 80.384974
3104.890000, 80.417904
3105.690000, 80.433835
3106.500000, 80.429365
3107.300000, 80.405895
3108.100000, 80.368326
3108.910000, 80.322656
3109.710000, 80.271986
3110.520000, 80.210816
3111.320000, 80.130347
3112.120000, 80.028777
3112.930000, 79.912307
3113.730000, 79.788338
3114.530000, 79.659268
3115.340000, 79.519698
3116.140000, 79.362129
3116.940000, 79.194659
3117.750000, 79.020689
3118.550000, 78.839020
3119.350000, 78.647850
3120.160000, 78.446280
3120.960000, 78.235811
3121.760000, 78.017741
3122.570000, 77.795171
3123.370000, 77.570002
3124.180000, 77.344432
3124.980000, 77.119962
3125.780000, 76.896492
3126.590000, 76.670423
3127.390000, 76.434453
3128.190000, 76.192683
3129.000000, 75.950814
3129.800000, 75.711644
3130.600000, 75.475574
3131.410000, 75.242005
3132.210000, 75.011435
3133.010000, 74.786865
3133.820000, 74.568996
3134.620000, 74.357226
3135.430000, 74.150456
3136.230000, 73.948187
3137.030000, 73.750817
3137.840000, 73.563247
3138.640000, 73.386178
3139.440000, 73.216608
3140.250000, 73.053238
3141.050000, 72.896068
3141.850000, 72.746799
3142.660000, 72.607329
3143.460000, 72.479859
3144.260000, 72.365490
3145.070000, 72.264620
3145.870000, 72.174750
3146.670000, 72.092281
3147.480000, 72.014111
3148.280000, 71.944841
3149.090000, 71.887172
3149.890000, 71.841802
3150.690000, 71.809332
3151.500000, 71.789863
3152.300000, 71.783693
3153.100000, 71.792223
3153.910000, 71.812053
3154.710000, 71.841884
3155.510000, 71.881614
3156.320000, 71.931244
3157.120000, 71.991175
3157.920000, 72.064705
3158.730000, 72.152835
3159.530000, 72.252666
3160.330000, 72.361996
3161.140000, 72.479126
3161.940000, 72.603757
3162.750000, 72.738387
3163.550000, 72.883317
3164.350000, 73.035848
3165.160000, 73.195578
3165.960000, 73.363508
3166.760000, 73.541939
3167.570000, 73.733569
3168.370000, 73.935199
3169.170000, 74.143929
3169.980000, 74.358760
3170.780000, 74.578890
3171.580000, 74.803220
3172.390000, 75.031451
3173.190000, 75.261081
3174.000000, 75.490111
3174.800000, 75.719242
3175.600000, 75.950572
3176.410000, 76.187202
3177.210000, 76.429933
3178.010000, 76.673363
3178.820000, 76.915793
3179.620000, 77.156524
3180.420000, 77.395254
3181.230000, 77.631184
3182.030000, 77.863915
3182.830000, 78.095445
3183.640000, 78.324775
3184.440000, 78.549505
3185.240000, 78.766236
3186.050000, 78.971666
3186.850000, 79.169296
3187.660000, 79.360827
3188.460000, 79.545957
3189.260000, 79.724887
3190.070000, 79.899018
3190.870000, 80.066548
3191.670000, 80.221478
3192.480000, 80.359309
3193.280000, 80.480139
3194.080000, 80.586769
3194.890000, 80.682400
3195.690000, 80.768330
3196.490000, 80.846160
3197.300000, 80.914891
3198.100000, 80.972621
3198.910000, 81.015451
3199.710000, 81.040681
3200.510000, 81.056112
3201.320000, 81.060742
3202.120000, 81.050972
3202.920000, 81.021703
3203.730000, 80.970033
3204.530000, 80.910663
3205.330000, 80.846194
3206.140000, 80.774024
3206.940000, 80.689754
3207.740000, 80.588485
3208.550000, 80.473715
3209.350000, 80.346945
3210.150000, 80.207076
3210.960000, 80.054606
3211.760000, 79.892336
3212.570000, 79.724067
3213.370000, 79.551297
3214.170000, 79.374427
3214.980000, 79.193657
3215.780000, 79.008988
3216.580000, 78.815718
3217.390000, 78.613948
3218.190000, 78.405079
3218.990000, 78.191109
3219.800000, 77.974439
3220.600000, 77.759170
3221.400000, 77.547500
3222.210000, 77.338430
3223.010000, 77.130461
3223.810000, 76.921391
3224.620000, 76.708421
3225.420000, 76.490352
3226.230000, 76.269282
3227.030000, 76.048912
3227.830000, 75.834643
3228.640000, 75.634373
3229.440000, 75.440303
3230.240000, 75.247633
3231.050000, 75.055064
3231.850000, 74.863394
3232.650000, 74.677824
3233.460000, 74.501055
3234.260000, 74.334585
3235.060000, 74.178615
3235.870000, 74.031846
3236.670000, 73.892276
3237.480000, 73.758406
3238.280000, 73.631737
3239.080000, 73.513467
3239.890000, 73.403797
3240.690000, 73.304928
3241.490000, 73.214858
3242.300000, 73.134088
3243.100000, 73.062719
3243.900000, 73.001349
3244.710000, 72.951979
3245.510000, 72.912209
3246.310000, 72.881640
3247.120000, 72.859470
3247.920000, 72.846300
3248.720000, 72.842031
3249.530000, 72.845361
3250.330000, 72.856991
3251.140000, 72.877722
3251.940000, 72.912552
3252.740000, 72.959782
3253.550000, 73.016713
3254.350000, 73.083143
3255.150000, 73.158773
3255.960000, 73.248904
3256.760000, 73.348534
3257.560000, 73.456464
3258.370000, 73.572195
3259.170000, 73.698525
3259.970000, 73.838255
3260.780000, 73.984685
3261.580000, 74.135516
3262.380000, 74.289646
3263.190000, 74.450376
3263.990000, 74.615607
3264.800000, 74.783937
3265.600000, 74.956667
3266.400000, 75.136998
3267.210000, 75.330728
3268.010000, 75.531658
3268.810000, 75.738389
3269.620000, 75.950119
3270.420000, 76.169349
3271.220000, 76.392980
3272.030000, 76.614410
3272.830000, 76.830940
3273.630000, 77.040771
3274.440000, 77.251501
3275.240000, 77.468631
3276.050000, 77.690661
3276.850000, 77.915692
3277.650000, 78.139522
3278.460000, 78.361652
3279.260000, 78.582283
3280.060000, 78.800113
3280.870000, 79.012843
3281.670000, 79.219374
3282.470000, 79.424604
3283.280000, 79.628134
3284.080000, 79.828665
3284.880000, 80.019795
3285.690000, 80.203325
3286.490000, 80.381056
3287.290000, 80.552986
3288.100000, 80.716216
3288.900000, 80.866747
3289.710000, 81.008577
3290.510000, 81.142707
3291.310000, 81.270737
3292.120000, 81.391968
3292.920000, 81.507998
3293.720000, 81.617928
3294.530000, 81.720859
3295.330000, 81.811689
3296.130000, 81.889019
3296.940000, 81.954650
3297.740000, 82.008680
3298.540000, 82.049210
3299.350000, 82.071241
3300.150000, 82.078871
3300.960000, 82.074401
3301.760000, 82.061032
3302.560000, 82.041862
3303.370000, 82.018192
3304.170000, 81.988122
3304.970000, 81.949953
3305.780000, 81.895983
3306.580000, 81.829813
3307.380000, 81.753544
3308.190000, 81.668674
3308.990000, 81.577004
3309.790000, 81.481035
3310.600000, 81.379365
3311.400000, 81.270995
3312.200000, 81.152626
3313.010000, 81.027456
3313.810000, 80.898086
3314.620000, 80.764417
3315.420000, 80.624247
3316.220000, 80.475277
3317.030000, 80.322508
3317.830000, 80.167738
3318.630000, 80.013268
3319.440000, 79.855798
3320.240000, 79.693429
3321.040000, 79.525959
3321.850000, 79.353389
3322.650000, 79.176920
3323.450000, 79.000950
3324.260000, 78.827280
3325.060000, 78.657511
3325.860000, 78.493841
3326.670000, 78.332771
3327.470000, 78.173402
3328.280000, 78.014832
3329.080000, 77.856262
3329.880000, 77.698593
3330.690000, 77.542723
3331.490000, 77.389753
3332.290000, 77.244584
3333.100000, 77.107014
3333.900000, 76.976944
3334.700000, 76.854574
3335.510000, 76.740505
3336.310000, 76.630135
3337.110000, 76.523065
3337.920000, 76.418796
3338.720000, 76.318126
3339.530000, 76.221556
3340.330000, 76.131087
3341.130000, 76.049217
3341.940000, 75.981647
3342.740000, 75.920278
3343.540000, 75.864608
3344.350000, 75.813738
3345.150000, 75.772469
3345.950000, 75.738899
3346.760000, 75.713029
3347.560000, 75.695160
3348.360000, 75.686690
3349.170000, 75.685420
3349.970000, 75.691650
3350.770000, 75.707481
3351.580000, 75.735011
3352.380000, 75.770841
3353.190000, 75.814172
3353.990000, 75.865202
3354.790000, 75.920232
3355.600000, 75.978863
3356.400000, 76.041793
3357.200000, 76.113523
3358.010000, 76.193654
3358.810000, 76.280084
3359.610000, 76.372614
3360.420000, 76.474645
3361.220000, 76.583175
3362.020000, 76.695905
3362.830000, 76.811936
3363.630000, 76.933266
3364.430000, 77.059496
3365.240000, 77.190526
3366.040000, 77.326957
3366.850000, 77.469187
3367.650000, 77.615617
3368.450000, 77.766448
3369.260000, 77.923378
3370.060000, 78.085808
3370.860000, 78.250239
3371.670000, 78.415969
3372.470000, 78.581899
3373.270000, 78.749930
3374.080000, 78.920860
3374.880000, 79.095390
3375.680000, 79.273421
3376.490000, 79.450351
3377.290000, 79.625281
3378.100000, 79.797112
3378.900000, 79.965442
3379.700000, 80.132172
3380.510000, 80.297002
3381.310000, 80.458933
3382.110000, 80.617963
3382.920000, 80.775493
3383.720000, 80.932124
3384.520000, 81.087654
3385.330000, 81.240384
3386.130000, 81.389415
3386.930000, 81.533245
3387.740000, 81.667775
3388.540000, 81.796206
3389.340000, 81.918936
3390.150000, 82.035766
3390.950000, 82.148897
3391.760000, 82.257627
3392.560000, 82.361057
3393.360000, 82.449788
3394.170000, 82.527618
3394.970000, 82.597048
3395.770000, 82.658978
3396.580000, 82.713709
3397.380000, 82.761939
3398.180000, 82.802869
3398.990000, 82.831900
3399.790000, 82.851030
3400.590000, 82.863060
3401.400000, 82.868191
3402.200000, 82.863421
3403.000000, 82.851451
3403.810000, 82.831982
3404.610000, 82.802412
3405.420000, 82.763642
3406.220000, 82.718573
3407.020000, 82.667603
3407.830000, 82.608233
3408.630000, 82.543264
3409.430000, 82.472094
3410.240000, 82.391424
3411.040000, 82.299254
3411.840000, 82.200485
3412.650000, 82.095915
3413.450000, 81.985245
3414.250000, 81.871476
3415.060000, 81.754606
3415.860000, 81.634036
3416.670000, 81.507067
3417.470000, 81.374297
3418.270000, 81.235527
3419.080000, 81.088058
3419.880000, 80.937788
3420.680000, 80.786318
3421.490000, 80.635649
3422.290000, 80.487779
3423.090000, 80.339809
3423.900000, 80.190940
3424.700000, 80.036970
3425.500000, 79.881500
3426.310000, 79.725430
3427.110000, 79.569961
3427.910000, 79.414291
3428.720000, 79.258421
3429.520000, 79.102652
3430.330000, 78.949882
3431.130000, 78.799512
3431.930000, 78.651343
3432.740000, 78.505273
3433.540000, 78.360603
3434.340000, 78.217034
3435.150000, 78.074664
3435.950000, 77.935894
3436.750000, 77.800525
3437.560000, 77.668855
3438.360000, 77.543285
3439.160000, 77.422016
3439.970000, 77.304746
3440.770000, 77.193176
3441.580000, 77.088106
3442.380000, 76.987637
3443.180000, 76.892367
3443.990000, 76.805297
3444.790000, 76.722528
3445.590000, 76.644058
3446.400000, 76.571988
3447.200000, 76.506419
3448.000000, 76.446749
3448.810000, 76.394879
3449.610000, 76.352210
3450.410000, 76.315340
3451.220000, 76.284270
3452.020000, 76.261601
3452.820000, 76.243131
3453.630000, 76.228961
3454.430000, 76.221691
3455.240000, 76.221022
3456.040000, 76.225352
3456.840000, 76.236082
3457.650000, 76.252913
3458.450000, 76.274243
3459.250000, 76.300573
3460.060000, 76.335904
3460.860000, 76.376834
3461.660000, 76.423564
3462.470000, 76.480095
3463.270000, 76.543225
3464.070000, 76.611455
3464.880000, 76.685686
3465.680000, 76.764416
3466.480000, 76.847046
3467.290000, 76.934877
3468.090000, 77.030207
3468.900000, 77.129237
3469.700000, 77.231667
3470.500000, 77.337098
3471.310000, 77.443528
3472.110000, 77.551158
3472.910000, 77.661589
3473.720000, 77.775719
3474.520000, 77.893149
3475.320000, 78.015880
3476.130000, 78.143310
3476.930000, 78.273540
3477.730000, 78.406471
3478.540000, 78.540601
3479.340000, 78.674331
3480.150000, 78.807362
3480.950000, 78.937592
3481.750000, 79.066522
3482.560000, 79.194053
3483.360000, 79.319883
3484.160000, 79.444713
3484.970000, 79.569243
3485.770000, 79.694574
3486.570000, 79.821104
3487.380000, 79.947234
3488.180000, 80.070965
3488.980000, 80.189095
3489.790000, 80.302825
3490.590000, 80.410756
3491.390000, 80.511686
3492.200000, 80.608416
3493.000000, 80.700647
3493.810000, 80.788177
3494.610000, 80.873207
3495.410000, 80.955538
3496.220000, 81.030668
3497.020000, 81.099998
3497.820000, 81.163329
3498.630000, 81.213859
3499.430000, 81.257489
3500.230000, 81.295319
3501.040000, 81.325750
3501.840000, 81.350980
3502.640000, 81.371610
3503.450000, 81.383841
3504.250000, 81.388171
3505.050000, 81.386201
3505.860000, 81.374232
3506.660000, 81.352262
3507.470000, 81.324092
3508.270000, 81.288423
3509.070000, 81.246153
3509.880000, 81.198483
3510.680000, 81.143014
3511.480000, 81.074744
3512.290000, 80.998574
3513.090000, 80.912905
3513.890000, 80.817235
3514.700000, 80.716865
3515.500000, 80.611595
3516.300000, 80.499126
3517.110000, 80.382156
3517.910000, 80.259886
3518.720000, 80.128117
3519.520000, 79.991447
3520.320000, 79.849777
3521.130000, 79.698808
3521.930000, 79.542438
3522.730000, 79.380868
3523.540000, 79.211299
3524.340000, 79.039429
3525.140000, 78.865359
3525.950000, 78.686290
3526.750000, 78.503720
3527.550000, 78.317850
3528.360000, 78.126581
3529.160000, 77.934011
3529.960000, 77.740241
3530.770000, 77.544271
3531.570000, 77.346002
3532.380000, 77.145832
3533.180000, 76.943162
3533.980000, 76.741893
3534.790000, 76.541923
3535.590000, 76.346253
3536.390000, 76.151584
3537.200000, 75.957814
3538.000000, 75.763044
3538.800000, 75.567975
3539.610000, 75.372805
3540.410000, 75.179835
3541.210000, 74.988966
3542.020000, 74.800196
3542.820000, 74.615526
3543.630000, 74.433657
3544.430000, 74.254187
3545.230000, 74.079417
3546.040000, 73.906647
3546.840000, 73.735978
3547.640000, 73.571208
3548.450000, 73.411238
3549.250000, 73.256169
3550.050000, 73.111899
3550.860000, 72.972029
3551.660000, 72.836960
3552.460000, 72.707390
3553.270000, 72.580220
3554.070000, 72.455451
3554.870000, 72.337881
3555.680000, 72.225511
3556.480000, 72.119542
3557.290000, 72.023772
3558.090000, 71.933002
3558.890000, 71.848133
3559.700000, 71.770363
3560.500000, 71.696893
3561.300000, 71.629323
3562.110000, 71.571154
3562.910000, 71.518684
3563.710000, 71.474414
3564.520000, 71.436945
3565.320000, 71.403375
3566.120000, 71.375505
3566.930000, 71.354536
3567.730000, 71.338566
3568.530000, 71.331796
3569.340000, 71.333227
3570.140000, 71.340257
3570.950000, 71.357387
3571.750000, 71.380218
3572.550000, 71.407248
3573.360000, 71.440878
3574.160000, 71.478609
3574.960000, 71.519839
3575.770000, 71.568569
3576.570000, 71.620199
3577.370000, 71.674930
3578.180000, 71.735860
3578.980000, 71.801890
3579.780000, 71.874421
3580.590000, 71.958751
3581.390000, 72.047681
3582.200000, 72.142612
3583.000000, 72.240442
3583.800000, 72.339972
3584.610000, 72.442103
3585.410000, 72.548133
3586.210000, 72.656763
3587.020000, 72.770294
3587.820000, 72.887024
3588.620000, 73.005754
3589.430000, 73.127884
3590.230000, 73.251815
3591.030000, 73.377145
3591.840000, 73.506175
3592.640000, 73.637006
3593.440000, 73.770136
3594.250000, 73.905966
3595.050000, 74.042097
3595.860000, 74.178327
3596.660000, 74.312957
3597.460000, 74.446688
3598.270000, 74.579218
3599.070000, 74.711248
3599.870000, 74.842879
3600.680000, 74.973009
3601.480000, 75.100839
3602.280000, 75.226670
3603.090000, 75.346600
3603.890000, 75.463930
3604.690000, 75.577960
3605.500000, 75.688491
3606.300000, 75.797321
3607.100000, 75.903651
3607.910000, 76.004682
3608.710000, 76.102612
3609.520000, 76.194242
3610.320000, 76.281073
3611.120000, 76.364803
3611.930000, 76.441633
3612.730000, 76.513164
3613.530000, 76.579894
3614.340000, 76.634524
3615.140000, 76.684255
3615.940000, 76.727085
3616.750000, 76.762915
3617.550000, 76.795046
3618.350000, 76.820576
3619.160000, 76.837406
3619.960000, 76.848436
3620.770000, 76.846767
3621.570000, 76.838397
3622.370000, 76.824327
3623.180000, 76.800358
3623.980000, 76.771788
3624.780000, 76.736218
3625.590000, 76.689649
3626.390000, 76.637279
3627.190000, 76.573909
3628.000000, 76.501840
3628.800000, 76.424170
3629.600000, 76.335600
3630.410000, 76.241631
3631.210000, 76.142361
3632.010000, 76.031991
3632.820000, 75.916422
3633.620000, 75.792252
3634.430000, 75.659582
3635.230000, 75.522412
3636.030000, 75.376743
3636.840000, 75.225273
3637.640000, 75.069503
3638.440000, 74.904234
3639.250000, 74.735064
3640.050000, 74.560194
3640.850000, 74.377425
3641.660000, 74.191255
3642.460000, 73.998985
3643.260000, 73.802316
3644.070000, 73.602946
3644.870000, 73.397576
3645.670000, 73.190207
3646.480000, 72.980437
3647.280000, 72.767567
3648.090000, 72.553298
3648.890000, 72.336128
3649.690000, 72.116858
3650.500000, 71.896388
3651.300000, 71.674619
3652.100000, 71.452649
3652.910000, 71.230479
3653.710000, 71.006510
3654.510000, 70.781040
3655.320000, 70.552070
3656.120000, 70.321401
3656.920000, 70.089831
3657.730000, 69.860461
3658.530000, 69.632892
3659.340000, 69.407822
3660.140000, 69.184952
3660.940000, 68.962883
3661.750000, 68.741813
3662.550000, 68.522143
3663.350000, 68.303574
3664.160000, 68.090404
3664.960000, 67.880234
3665.760000, 67.674364
3666.570000, 67.473595
3667.370000, 67.275025
3668.170000, 67.081255
3668.980000, 66.890886
3669.780000, 66.703216
3670.580000, 66.520546
3671.390000, 66.339777
3672.190000, 66.161907
3673.000000, 65.987337
3673.800000, 65.814768
3674.600000, 65.648298
3675.410000, 65.486628
3676.210000, 65.330159
3677.010000, 65.183689
3677.820000, 65.041019
3678.620000, 64.905450
3679.420000, 64.773680
3680.230000, 64.644510
3681.030000, 64.521940
3681.830000, 64.402271
3682.640000, 64.288001
3683.440000, 64.179831
3684.250000, 64.074962
3685.050000, 63.978392
3685.850000, 63.886622
3686.660000, 63.800053
3687.460000, 63.721783
3688.260000, 63.647113
3689.070000, 63.580044
3689.870000, 63.518474
3690.670000, 63.461004
3691.480000, 63.411635
3692.280000, 63.365065
3693.080000, 63.323695
3693.890000, 63.287326
3694.690000, 63.253556
3695.490000, 63.227686
3696.300000, 63.205416
3697.100000, 63.188747
3697.910000, 63.178777
3698.710000, 63.171707
3699.510000, 63.170938
3700.320000, 63.173168
3701.120000, 63.178998
3701.920000, 63.191229
3702.730000, 63.206159
3703.530000, 63.227389
3704.330000, 63.251820
3705.140000, 63.279050
3705.940000, 63.311580
3706.740000, 63.346411
3707.550000, 63.386241
3708.350000, 63.430171
3709.150000, 63.477002
3709.960000, 63.530132
3710.760000, 63.585162
3711.570000, 63.643692
3712.370000, 63.704123
3713.170000, 63.765653
3713.980000, 63.829183
3714.780000, 63.893814
3715.580000, 63.960544
3716.390000, 64.031474
3717.190000, 64.104505
3717.990000, 64.183435
3718.800000, 64.262765
3719.600000, 64.342996
3720.400000, 64.422626
3721.210000, 64.502056
3722.010000, 64.582487
3722.820000, 64.663217
3723.620000, 64.744647
3724.420000, 64.825178
3725.230000, 64.905308
3726.030000, 64.983438
3726.830000, 65.061068
3727.640000, 65.137899
3728.440000, 65.213829
3729.240000, 65.289359
3730.050000, 65.363190
3730.850000, 65.435920
3731.650000, 65.506750
3732.460000, 65.574581
3733.260000, 65.641011
3734.060000, 65.702241
3734.870000, 65.761772
3735.670000, 65.818102
3736.480000, 65.871832
3737.280000, 65.924263
3738.080000, 65.973993
3738.890000, 66.022823
3739.690000, 66.069653
3740.490000, 66.112884
3741.300000, 66.154414
3742.100000, 66.187644
3742.900000, 66.217975
3743.710000, 66.241605
3744.510000, 66.259735
3745.310000, 66.274366
3746.120000, 66.282796
3746.920000, 66.289526
3747.720000, 66.292857
3748.530000, 66.292787
3749.330000, 66.290217
3750.140000, 66.280248
3750.940000, 66.267678
3751.740000, 66.247908
3752.550000, 66.223739
3753.350000, 66.195369
3754.150000, 66.159799
3754.960000, 66.121629
3755.760000, 66.076660
3756.560000, 66.028990
3757.370000, 65.977720
3758.170000, 65.921951
3758.970000, 65.864381
3759.780000, 65.800911
3760.580000, 65.735442
3761.390000, 65.665872
3762.190000, 65.592002
3762.990000, 65.515833
3763.800000, 65.433463
3764.600000, 65.349393
3765.400000, 65.260724
3766.210000, 65.169254
3767.010000, 65.075584
3767.810000, 64.978515
3768.620000, 64.880145
3769.420000, 64.777475
3770.220000, 64.672605
3771.030000, 64.564736
3771.830000, 64.455366
3772.630000, 64.345596
3773.440000, 64.235927
3774.240000, 64.125457
3775.050000, 64.013487
3775.850000, 63.899018
3776.650000, 63.783148
3777.460000, 63.665578
3778.260000, 63.547909
3779.060000, 63.431039
3779.870000, 63.314969
3780.670000, 63.200000
3781.470000, 63.086330
3782.280000, 62.973060
3783.080000, 62.859691
3783.880000, 62.745921
3784.690000, 62.631151
3785.490000, 62.516481
3786.300000, 62.401812
3787.100000, 62.290042
3787.900000, 62.179472
3788.710000, 62.073303
3789.510000, 61.968933
3790.310000, 61.867163
3791.120000, 61.768094
3791.920000, 61.670324
3792.720000, 61.577354
3793.530000, 61.485485
3794.330000, 61.396415
3795.130000, 61.308145
3795.940000, 61.220476
3796.740000, 61.134706
3797.540000, 61.049836
3798.350000, 60.971467
3799.150000, 60.896097
3799.960000, 60.826527
3800.760000, 60.761157
3801.560000, 60.698388
3802.370000, 60.639918
3803.170000, 60.582948
3803.970000, 60.530579
3804.780000, 60.481109
3805.580000, 60.435739
3806.380000, 60.394870
3807.190000, 60.356400
3807.990000, 60.320900
3808.790000, 60.286700
3809.600000, 60.256000
3810.400000, 60.228400
3811.200000, 60.204600
3812.010000, 60.187300
3812.810000, 60.172800
3813.620000, 60.167100
3814.420000, 60.163400
3815.220000, 60.165600
3816.030000, 60.171000
3816.830000, 60.180100
3817.630000, 60.193800
3818.440000, 60.209200
3819.240000, 60.230400
3820.040000, 60.253200
3820.850000, 60.281200
3821.650000, 60.313000
3822.450000, 60.349000
3823.260000, 60.390800
3824.060000, 60.435000
3824.870000, 60.485500
3825.670000, 60.537200
3826.470000, 60.592600
3827.280000, 60.650200
3828.080000, 60.710300
3828.880000, 60.774500
3829.690000, 60.840400
3830.490000, 60.911900
3831.290000, 60.984900
3832.100000, 61.062800
3832.900000, 61.143000
3833.700000, 61.226500
3834.510000, 61.313000
3835.310000, 61.401200
3836.110000, 61.492500
3836.920000, 61.584700
3837.720000, 61.680200
3838.530000, 61.777800
3839.330000, 61.878900
3840.130000, 61.983200
3840.940000, 62.089700
3841.740000, 62.198300
3842.540000, 62.307400
3843.350000, 62.417100
3844.150000, 62.527100
3844.950000, 62.638000
3845.760000, 62.750200
3846.560000, 62.863500
3847.360000, 62.977700
3848.170000, 63.092200
3848.970000, 63.205900
3849.770000, 63.319500
3850.580000, 63.432900
3851.380000, 63.547200
3852.190000, 63.662700
3852.990000, 63.779700
3853.790000, 63.897700
3854.600000, 64.015400
3855.400000, 64.132800
3856.200000, 64.246400
3857.010000, 64.358700
3857.810000, 64.467400
3858.610000, 64.574200
3859.420000, 64.678900
3860.220000, 64.780800
3861.020000, 64.881300
3861.830000, 64.978200
3862.630000, 65.074400
3863.440000, 65.168700
3864.240000, 65.262100
3865.040000, 65.353600
3865.850000, 65.442000
3866.650000, 65.527700
3867.450000, 65.607500
3868.260000, 65.685100
3869.060000, 65.755300
3869.860000, 65.824000
3870.670000, 65.886400
3871.470000, 65.946500
3872.270000, 66.002200
3873.080000, 66.054600
3873.880000, 66.104200
3874.680000, 66.149200
3875.490000, 66.192600
3876.290000, 66.228900
3877.100000, 66.263300
3877.900000, 66.289200
3878.700000, 66.311500
3879.510000, 66.326700
3880.310000, 66.337400
3881.110000, 66.344000
3881.920000, 66.346000
3882.720000, 66.346200
3883.520000, 66.339800
3884.330000, 66.331900
3885.130000, 66.315800
3885.930000, 66.297000
3886.740000, 66.271600
3887.540000, 66.242100
3888.350000, 66.208300
3889.150000, 66.168900
3889.950000, 66.126800
3890.760000, 66.077800
3891.560000, 66.027300
3892.360000, 65.970000
3893.170000, 65.911300
3893.970000, 65.847100
3894.770000, 65.779700
3895.580000, 65.707400
3896.380000, 65.630400
3897.180000, 65.550000
3897.990000, 65.465500
3898.790000, 65.379700
3899.590000, 65.290700
3900.400000, 65.201000
3901.200000, 65.107100
3902.010000, 65.011300
3902.810000, 64.910800
3903.610000, 64.807500
3904.420000, 64.700900
3905.220000, 64.591600
3906.020000, 64.480800
3906.830000, 64.367500
3907.630000, 64.253600
3908.430000, 64.137600
3909.240000, 64.021200
3910.040000, 63.902800
3910.840000, 63.783400
3911.650000, 63.661600
3912.450000, 63.538600
3913.250000, 63.414200
3914.060000, 63.289400
3914.860000, 63.164400
3915.670000, 63.040100
3916.470000, 62.916100
3917.270000, 62.792700
3918.080000, 62.669300
3918.880000, 62.545300
3919.680000, 62.421300
3920.490000, 62.297300
3921.290000, 62.174400
3922.090000, 62.053200
3922.900000, 61.933900
3923.700000, 61.816200
3924.500000, 61.699900
3925.310000, 61.584300
3926.110000, 61.470900
3926.920000, 61.357900
3927.720000, 61.248800
3928.520000, 61.140400
3929.330000, 61.034900
3930.130000, 60.930400
3930.930000, 60.827700
3931.740000, 60.726500
3932.540000, 60.627000
3933.340000, 60.530700
3934.150000, 60.436300
3934.950000, 60.346700
3935.750000, 60.258600
3936.560000, 60.175300
3937.360000, 60.092700
3938.160000, 60.014100
3938.970000, 59.936300
3939.770000, 59.862400
3940.580000, 59.790200
3941.380000, 59.722000
3942.180000, 59.656600
3942.990000, 59.594600
3943.790000, 59.536500
3944.590000, 59.481200
3945.400000, 59.430100
3946.200000, 59.380700
3947.000000, 59.335100
3947.810000, 59.290300
3948.610000, 59.250800
3949.410000, 59.212300
3950.220000, 59.180500
3951.020000, 59.150600
3951.820000, 59.126600
3952.630000, 59.105000
3953.430000, 59.087300
3954.240000, 59.072100
3955.040000, 59.059500
3955.840000, 59.049500
3956.650000, 59.041300
3957.450000, 59.035800
3958.250000, 59.031300
3959.060000, 59.030200
3959.860000, 59.029700
3960.660000, 59.035100
3961.470000, 59.041300
3962.270000, 59.054500
3963.070000, 59.069100
3963.880000, 59.089500
3964.680000, 59.111700
3965.490000, 59.138100
3966.290000, 59.166200
3967.090000, 59.196800
3967.900000, 59.228800
3968.700000, 59.262000
3969.500000, 59.296900
3970.310000, 59.332700
3971.110000, 59.371500
3971.910000, 59.411300
3972.720000, 59.455600
3973.520000, 59.500500
3974.320000, 59.550300
3975.130000, 59.600400
3975.930000, 59.653900
3976.730000, 59.707800
3977.540000, 59.763100
3978.340000, 59.818600
3979.150000, 59.874300
3979.950000, 59.930200
3980.750000, 59.986400
3981.560000, 60.043300
3982.360000, 60.100900
3983.160000, 60.159700
3983.970000, 60.219300
3984.770000, 60.280000
3985.570000, 60.341200
3986.380000, 60.403300
3987.180000, 60.465600
3987.980000, 60.527100
3988.790000, 60.588600
3989.590000, 60.647000
3990.390000, 60.705000
3991.200000, 60.759700
3992.000000, 60.814000
3992.810000, 60.866800
3993.610000, 60.919400
3994.410000, 60.971600
3995.220000, 61.023400
3996.020000, 61.074400
3996.820000, 61.124400
3997.630000, 61.172600
3998.430000, 61.218100
3999.230000, 61.260700
4000.040000, 61.299200
4000.840000, 61.334600
4001.640000, 61.366100
4002.450000, 61.395500
4003.250000, 61.422200
4004.060000, 61.447700
4004.860000, 61.470100
4005.660000, 61.491500
4006.470000, 61.507600
4007.270000, 61.522900
4008.070000, 61.530700
4008.880000, 61.537900
4009.680000, 61.536900
4010.480000, 61.535300
4011.290000, 61.526400
4012.090000, 61.516600
4012.890000, 61.501100
4013.700000, 61.484200
4014.500000, 61.462600
4015.300000, 61.438500
4016.110000, 61.408500
4016.910000, 61.374800
4017.720000, 61.334200
4018.520000, 61.289500
4019.320000, 61.239000
4020.130000, 61.185000
4020.930000, 61.127200
4021.730000, 61.065300
4022.540000, 61.000000
4023.340000, 60.929200
4024.140000, 60.854700
4024.950000, 60.774600
4025.750000, 60.691400
4026.550000, 60.603100
4027.360000, 60.512800
4028.160000, 60.416400
4028.970000, 60.318300
4029.770000, 60.212700
4030.570000, 60.105500
4031.380000, 59.990700
4032.180000, 59.874700
4032.980000, 59.751400
4033.790000, 59.627600
4034.590000, 59.496700
4035.390000, 59.365500
4036.200000, 59.227700
4037.000000, 59.089500
4037.800000, 58.945600
4038.610000, 58.801100
4039.410000, 58.651300
4040.210000, 58.500500
4041.020000, 58.344000
4041.820000, 58.186100
4042.630000, 58.022300
4043.430000, 57.857100
4044.230000, 57.686700
4045.040000, 57.515200
4045.840000, 57.340500
4046.640000, 57.165100
4047.450000, 56.988300
4048.250000, 56.811000
4049.050000, 56.632900
4049.860000, 56.454000
4050.660000, 56.273900
4051.460000, 56.092500
4052.270000, 55.909200
4053.070000, 55.724300
4053.870000, 55.537400
4054.680000, 55.349300
4055.480000, 55.159800
4056.290000, 54.970200
4057.090000, 54.780300
4057.890000, 54.590900
4058.700000, 54.401900
4059.500000, 54.213000
4060.300000, 54.024100
4061.110000, 53.834800
4061.910000, 53.645300
4062.710000, 53.456100
4063.520000, 53.267100
4064.320000, 53.079000
4065.120000, 52.891700
4065.930000, 52.705600
4066.730000, 52.520400
4067.540000, 52.336900
4068.340000, 52.154500
4069.140000, 51.973900
4069.950000, 51.794400
4070.750000, 51.616100
4071.550000, 51.438600
4072.360000, 51.262500
4073.160000, 51.087200
4073.960000, 50.914600
4074.770000, 50.743300
4075.570000, 50.575200
4076.370000, 50.408700
4077.180000, 50.244700
4077.980000, 50.081800
4078.780000, 49.921200
4079.590000, 49.761600
4080.390000, 49.605400
4081.200000, 49.450800
4082.000000, 49.300700
4082.800000, 49.152600
4083.610000, 49.008200
4084.410000, 48.865400
4085.210000, 48.724900
4086.020000, 48.585500
4086.820000, 48.448200
4087.620000, 48.311900
4088.430000, 48.179200
4089.230000, 48.048100
4090.030000, 47.921800
4090.840000, 47.797700
4091.640000, 47.678500
4092.440000, 47.561600
4093.250000, 47.448300
4094.050000, 47.336900
4094.860000, 47.228300
4095.660000, 47.121300
4096.460000, 47.017200
4097.270000, 46.914700
4098.070000, 46.815500
4098.870000, 46.718100
4099.680000, 46.624100
4100.480000, 46.532100
4101.280000, 46.443700
4102.090000, 46.357600
4102.890000, 46.275100
4103.690000, 46.195400
4104.500000, 46.119100
4105.300000, 46.045600
4106.110000, 45.975300
4106.910000, 45.907600
4107.710000, 45.842300
4108.520000, 45.779300
4109.320000, 45.718100
4110.120000, 45.658900
4110.930000, 45.601500
4111.730000, 45.546300
4112.530000, 45.493200
4113.340000, 45.443100
4114.140000, 45.394900
4114.940000, 45.349600
4115.750000, 45.305800
4116.550000, 45.264200
4117.350000, 45.224000
4118.160000, 45.186600
4118.960000, 45.151000
4119.770000, 45.119300
4120.570000, 45.088800
4121.370000, 45.061800
4122.180000, 45.035400
4122.980000, 45.011200
4123.780000, 44.987600
4124.590000, 44.966700
4125.390000, 44.946500
4126.190000, 44.930000
4127.000000, 44.913900
4127.800000, 44.900700
4128.600000, 44.887500
4129.410000, 44.875800
4130.210000, 44.864000
4131.020000, 44.854200
4131.820000, 44.844400
4132.620000, 44.837300
4133.430000, 44.830300
4134.230000, 44.824700
4135.030000, 44.819300
4135.840000, 44.814200
4136.640000, 44.809300
4137.440000, 44.805300
4138.250000, 44.801600
4139.050000, 44.799300
4139.850000, 44.797400
4140.660000, 44.796300
4141.460000, 44.795500
4142.260000, 44.794200
4143.070000, 44.792700
4143.870000, 44.790000
4144.680000, 44.786500
4145.480000, 44.782400
4146.280000, 44.777900
4147.090000, 44.773900
4147.890000, 44.770500
4148.690000, 44.767700
4149.500000, 44.765600
4150.300000, 44.763200
4151.100000, 44.760100
4151.910000, 44.756200
4152.710000, 44.749900
4153.510000, 44.743000
4154.320000, 44.733500
4155.120000, 44.723700
4155.920000, 44.711600
4156.730000, 44.699400
4157.530000, 44.685000
4158.340000, 44.670600
4159.140000, 44.653700
4159.940000, 44.636700
4160.750000, 44.617100
4161.550000, 44.597300
4162.350000, 44.574500
4163.160000, 44.551100
4163.960000, 44.524800
4164.760000, 44.497500
4165.570000, 44.467800
4166.370000, 44.437000
4167.170000, 44.404600
4167.980000, 44.371000
4168.780000, 44.335800
4169.590000, 44.298900
4170.390000, 44.259800
4171.190000, 44.217700
4172.000000, 44.173600
4172.800000, 44.125300
4173.600000, 44.075700
4174.410000, 44.022400
4175.210000, 43.968500
4176.010000, 43.911700
4176.820000, 43.854600
4177.620000, 43.794300
4178.420000, 43.733900
4179.230000, 43.669900
4180.030000, 43.605800
4180.830000, 43.539000
4181.640000, 43.471900
4182.440000, 43.403400
4183.250000, 43.334500
4184.050000, 43.264500
4184.850000, 43.194100
4185.660000, 43.123400
4186.460000, 43.052700
4187.260000, 42.983100
4188.070000, 42.915100
4188.870000, 42.849200
4189.670000, 42.787200
4190.480000, 42.727500
4191.280000, 42.674600
4192.080000, 42.623400
4192.890000, 42.582100
4193.690000, 42.541300
4194.490000, 42.513600
4195.300000, 42.485800
4196.100000, 42.470300
4196.910000, 42.455800
4197.710000, 42.448800
4198.510000, 42.443600
4199.320000, 42.440400
4200.120000, 42.438100
4200.920000, 42.435600
4201.730000, 42.433000
4202.530000, 42.431200
4203.330000, 42.430100
4204.140000, 42.430800
4204.940000, 42.434800
4205.740000, 42.440100
4206.550000, 42.449700
4207.350000, 42.459700
4208.160000, 42.474000
4208.960000, 42.488400
4209.760000, 42.509900
4210.570000, 42.531600
4211.370000, 42.563000
4212.170000, 42.596200
4212.980000, 42.636600
4213.780000, 42.679800
4214.580000, 42.725400
4215.390000, 42.772600
4216.190000, 42.819500
4216.990000, 42.866000
4217.800000, 42.912600
4218.600000, 42.959300
4219.400000, 43.006300
4220.210000, 43.055100
4221.010000, 43.103800
4221.820000, 43.150000
4222.620000, 43.196100
4223.420000, 43.231600
4224.230000, 43.266000
4225.030000, 43.285300
4225.830000, 43.300100
4226.640000, 43.298600
4227.440000, 43.287500
4228.240000, 43.263700
4229.050000, 43.226400
4229.850000, 43.181800
4230.650000, 43.123100
4231.460000, 43.060300
4232.260000, 42.979600
4233.060000, 42.897900
4233.870000, 42.793600
4234.670000, 42.689400
4235.480000, 42.558300
4236.280000, 42.424000
4237.080000, 42.257800
4237.890000, 42.080200
4238.690000, 41.883600
4239.490000, 41.673300
4240.300000, 41.456000
4241.100000, 41.229500
4241.900000, 40.992700
4242.710000, 40.728000
4243.510000, 40.457000
4244.310000, 40.132500
4245.120000, 39.808100
4245.920000, 39.460000
4246.730000, 39.110600
4247.530000, 38.776000
4248.330000, 38.445600
4249.140000, 38.118900
4249.940000, 37.794600
4250.740000, 37.460500
4251.550000, 37.114500
4252.350000, 36.765100
4253.150000, 36.407200
4253.960000, 36.053800
4254.760000, 35.736400
4255.560000, 35.419100
4256.370000, 35.202100
4257.170000, 34.991800
4257.970000, 34.886400
4258.780000, 34.813300
4259.580000, 34.805500
4260.390000, 34.843200
4261.190000, 34.894800
4261.990000, 34.966200
4262.800000, 35.028200
4263.600000, 35.058800
4264.400000, 35.086400
4265.210000, 35.057400
4266.010000, 35.028400
4266.810000, 34.955800
4267.620000, 34.876500
4268.420000, 34.766400
4269.220000, 34.641900
4270.030000, 34.496600
4270.830000, 34.329900
4271.640000, 34.153900
4272.440000, 33.956600
4273.240000, 33.759400
4274.050000, 33.563000
4274.850000, 33.366600
4275.650000, 33.213500
4276.460000, 33.064100
4277.260000, 32.956400
4278.060000, 32.864100
4278.870000, 32.777100
4279.670000, 32.694700
4280.470000, 32.603500
4281.280000, 32.495100
4282.080000, 32.385600
4282.880000, 32.269600
4283.690000, 32.153500
4284.490000, 32.046400
4285.300000, 31.940000
4286.100000, 31.833500
4286.900000, 31.727200
4287.710000, 31.615100
4288.510000, 31.497900
4289.310000, 31.376400
4290.120000, 31.245800
4290.920000, 31.114000
4291.720000, 30.972200
4292.530000, 30.830400
4293.330000, 30.682300
4294.130000, 30.533600
4294.940000, 30.380900
4295.740000, 30.226400
4296.540000, 30.068700
4297.350000, 29.907600
4298.150000, 29.746900
4298.960000, 29.587300
4299.760000, 29.428200
4300.560000, 29.277800
4301.370000, 29.127500
4302.170000, 28.978000
4302.970000, 28.828700
4303.780000, 28.674700
4304.580000, 28.517500
4305.380000, 28.358500
4306.190000, 28.196300
4306.990000, 28.033200
4307.790000, 27.865200
4308.600000, 27.697200
4309.400000, 27.520300
4310.210000, 27.342800
4311.010000, 27.163500
4311.810000, 26.983400
4312.620000, 26.806600
4313.420000, 26.633500
4314.220000, 26.462200
4315.030000, 26.296500
4315.830000, 26.130900
4316.630000, 25.970300
4317.440000, 25.809700
4318.240000, 25.656200
4319.040000, 25.505000
4319.850000, 25.359700
4320.650000, 25.219700
4321.450000, 25.081200
4322.260000, 24.946500
4323.060000, 24.811800
4323.870000, 24.677100
4324.670000, 24.542500
4325.470000, 24.405300
4326.280000, 24.267400
4327.080000, 24.126600
4327.880000, 23.983400
4328.690000, 23.838500
4329.490000, 23.689800
4330.290000, 23.541000
4331.100000, 23.388600
4331.900000, 23.236200
4332.700000, 23.083200
4333.510000, 22.930000
4334.310000, 22.777100
4335.110000, 22.624400
4335.920000, 22.472300
4336.720000, 22.321400
4337.530000, 22.170800
4338.330000, 22.025500
4339.130000, 21.880300
4339.940000, 21.741400
4340.740000, 21.604300
4341.540000, 21.470400
4342.350000, 21.339400
4343.150000, 21.209200
4343.950000, 21.080700
4344.760000, 20.952300
4345.560000, 20.822400
4346.360000, 20.692500
4347.170000, 20.560200
4347.970000, 20.427000
4348.780000, 20.294300
4349.580000, 20.162100
4350.380000, 20.030900
4351.190000, 19.904000
4351.990000, 19.777200
4352.790000, 19.654300
4353.600000, 19.531900
4354.400000, 19.410200
4355.200000, 19.289000
4356.010000, 19.168000
4356.810000, 19.047300
4357.610000, 18.926900
4358.420000, 18.807600
4359.220000, 18.688400
4360.020000, 18.569600
4360.830000, 18.451000
4361.630000, 18.332400
4362.440000, 18.213900
4363.240000, 18.096200
4364.040000, 17.980800
4364.850000, 17.865500
4365.650000, 17.756200
4366.450000, 17.647000
4367.260000, 17.541500
4368.060000, 17.437500
4368.860000, 17.334200
4369.670000, 17.231800
4370.470000, 17.129300
4371.270000, 17.026600
4372.080000, 16.923900
4372.880000, 16.822200
4373.690000, 16.720800
4374.490000, 16.621600
4375.290000, 16.524400
4376.100000, 16.428400
4376.900000, 16.336800
4377.700000, 16.245100
4378.510000, 16.158200
4379.310000, 16.071700
4380.110000, 15.988400
4380.920000, 15.907200
4381.720000, 15.827600
4382.520000, 15.751500
4383.330000, 15.675500
4384.130000, 15.603400
4384.930000, 15.531400
4385.740000, 15.461200
4386.540000, 15.391800
4387.350000, 15.323300
4388.150000, 15.256000
4388.950000, 15.188900
4389.760000, 15.124400
4390.560000, 15.059900
4391.360000, 14.998600
4392.170000, 14.938200
4392.970000, 14.879800
4393.770000, 14.823700
4394.580000, 14.768000
4395.380000, 14.714800
4396.180000, 14.661600
4396.990000, 14.609100
4397.790000, 14.556900
4398.590000, 14.505000
4399.400000, 14.453600
4400.200000, 14.402900
4401.010000, 14.355000
4401.810000, 14.307200
4402.610000, 14.264300
4403.420000, 14.222200
4404.220000, 14.182300
4405.020000, 14.144500
4405.830000, 14.107000
4406.630000, 14.070900
4407.430000, 14.034900
4408.240000, 14.000300
4409.040000, 13.966000
4409.840000, 13.933600
4410.650000, 13.902800
4411.450000, 13.872900
4412.260000, 13.846500
4413.060000, 13.820200
4413.860000, 13.797200
4414.670000, 13.774800
4415.470000, 13.754200
4416.270000, 13.735100
4417.080000, 13.716700
4417.880000, 13.701000
4418.680000, 13.685400
4419.490000, 13.672500
4420.290000, 13.660000
4421.090000, 13.648900
4421.900000, 13.639000
4422.700000, 13.629500
4423.500000, 13.622000
4424.310000, 13.614500
4425.110000, 13.609600
4425.920000, 13.605300
4426.720000, 13.602700
4427.520000, 13.602100
4428.330000, 13.601900
4429.130000, 13.605200
4429.930000, 13.608400
4430.740000, 13.614800
4431.540000, 13.622200
4432.340000, 13.631000
4433.150000, 13.641900
4433.950000, 13.652900
4434.750000, 13.666500
4435.560000, 13.680100
4436.360000, 13.695200
4437.160000, 13.711000
4437.970000, 13.727400
4438.770000, 13.745300
4439.580000, 13.763100
4440.380000, 13.783700
4441.180000, 13.804500
4441.990000, 13.827900
4442.790000, 13.853200
4443.590000, 13.879500
4444.400000, 13.909300
4445.200000, 13.939100
4446.000000, 13.971100
4446.810000, 14.003500
4447.610000, 14.036200
4448.410000, 14.069200
4449.220000, 14.102400
4450.020000, 14.136300
4450.830000, 14.170200
4451.630000, 14.207000
4452.430000, 14.244700
4453.240000, 14.284600
4454.040000, 14.328200
4454.840000, 14.371900
4455.650000, 14.419000
4456.450000, 14.466300
4457.250000, 14.513800
4458.060000, 14.561600
4458.860000, 14.609600
4459.660000, 14.658600
4460.470000, 14.707700
4461.270000, 14.759300
4462.070000, 14.811500
4462.880000, 14.864800
4463.680000, 14.919600
4464.490000, 14.974400
4465.290000, 15.030600
4466.090000, 15.086700
4466.900000, 15.143900
4467.700000, 15.201700
4468.500000, 15.260100
4469.310000, 15.320400
4470.110000, 15.380600
4470.910000, 15.443100
4471.720000, 15.505900
4472.520000, 15.569300
4473.320000, 15.633600
4474.130000, 15.698000
4474.930000, 15.763400
4475.730000, 15.828700
4476.540000, 15.895100
4477.340000, 15.962000
4478.150000, 16.029300
4478.950000, 16.097800
4479.750000, 16.166200
4480.560000, 16.235700
4481.360000, 16.305300
4482.160000, 16.375200
4482.970000, 16.445600
4483.770000, 16.516000
4484.570000, 16.586800
4485.380000, 16.657600
4486.180000, 16.728700
4486.980000, 16.799900
4487.790000, 16.871200
4488.590000, 16.942800
4489.400000, 17.014400
4490.200000, 17.085800
4491.000000, 17.157200
4491.810000, 17.228400
4492.610000, 17.299300
4493.410000, 17.370200
4494.220000, 17.441200
4495.020000, 17.512200
4495.820000, 17.582900
4496.630000, 17.653300
4497.430000, 17.723600
4498.230000, 17.792200
4499.040000, 17.860700
4499.840000, 17.927900
4500.640000, 17.994300
4501.450000, 18.060600
4502.250000, 18.126300
4503.060000, 18.191900
4503.860000, 18.257400
4504.660000, 18.322800
4505.470000, 18.387800
4506.270000, 18.452200
4507.070000, 18.516500
4507.880000, 18.579100
4508.680000, 18.641500
4509.480000, 18.702800
4510.290000, 18.762800
4511.090000, 18.822700
4511.890000, 18.880200
4512.700000, 18.937700
4513.500000, 18.993900
4514.310000, 19.049100
4515.110000, 19.104000
4515.910000, 19.157200
4516.720000, 19.210300
4517.520000, 19.261900
4518.320000, 19.312700
4519.130000, 19.362800
4519.930000, 19.411000
4520.730000, 19.459100
4521.540000, 19.505200
4522.340000, 19.550700
4523.140000, 19.595300
4523.950000, 19.638100
4524.750000, 19.680800
4525.550000, 19.720700
4526.360000, 19.760200
4527.160000, 19.798300
4527.970000, 19.834600
4528.770000, 19.870900
4529.570000, 19.904300
4530.380000, 19.937600
4531.180000, 19.969300
4531.980000, 19.999500
4532.790000, 20.029600
4533.590000, 20.056300
4534.390000, 20.083100
4535.200000, 20.107600
4536.000000, 20.130600
4536.800000, 20.153200
4537.610000, 20.172500
4538.410000, 20.191800
4539.210000, 20.209000
4540.020000, 20.225100
4540.820000, 20.240700
4541.630000, 20.254000
4542.430000, 20.267300
4543.230000, 20.278600
4544.040000, 20.289000
4544.840000, 20.298700
4545.640000, 20.305900
4546.450000, 20.313100
4547.250000, 20.318000
4548.050000, 20.322000
4548.860000, 20.325400
4549.660000, 20.326700
4550.460000, 20.328000
4551.270000, 20.327300
4552.070000, 20.326000
4552.880000, 20.324000
4553.680000, 20.320200
4554.480000, 20.316400
4555.290000, 20.310900
4556.090000, 20.304900
4556.890000, 20.298200
4557.700000, 20.289600
4558.500000, 20.281100
4559.300000, 20.269600
4560.110000, 20.257400
4560.910000, 20.244100
4561.710000, 20.228300
4562.520000, 20.212500
4563.320000, 20.194700
4564.120000, 20.176500
4564.930000, 20.157700
4565.730000, 20.138000
4566.540000, 20.118200
4567.340000, 20.097300
4568.140000, 20.076200
4568.950000, 20.054800
4569.750000, 20.033000
4570.550000, 20.011200
4571.360000, 19.988500
4572.160000, 19.965700
4572.960000, 19.942200
4573.770000, 19.917100
4574.570000, 19.891900
4575.370000, 19.864700
4576.180000, 19.837000
4576.980000, 19.808900
4577.780000, 19.779600
4578.590000, 19.750300
4579.390000, 19.720100
4580.200000, 19.689700
4581.000000, 19.659000
4581.800000, 19.627800
4582.610000, 19.596500
4583.410000, 19.564700
4584.210000, 19.532600
4585.020000, 19.500300
4585.820000, 19.466600
4586.620000, 19.432900
4587.430000, 19.397900
4588.230000, 19.362300
4589.030000, 19.326500
4589.840000, 19.289300
4590.640000, 19.252200
4591.450000, 19.214300
4592.250000, 19.176100
4593.050000, 19.137800
4593.860000, 19.099200
4594.660000, 19.060600
4595.460000, 19.022300
4596.270000, 18.984100
4597.070000, 18.946000
4597.870000, 18.907600
4598.680000, 18.869200
4599.480000, 18.829900
4600.280000, 18.789900
4601.090000, 18.749900
4601.890000, 18.708700
4602.690000, 18.667500
4603.500000, 18.626300
4604.300000, 18.585200
4605.110000, 18.544000
4605.910000, 18.502800
4606.710000, 18.461600
4607.520000, 18.420200
4608.320000, 18.378300
4609.120000, 18.336500
4609.930000, 18.294500
4610.730000, 18.252600
4611.530000, 18.210600
4612.340000, 18.168500
4613.140000, 18.126400
4613.940000, 18.083800
4614.750000, 18.041000
4615.550000, 17.998100
4616.360000, 17.954400
4617.160000, 17.910700
4617.960000, 17.866500
4618.770000, 17.821900
4619.570000, 17.777200
4620.370000, 17.731900
4621.180000, 17.686600
4621.980000, 17.641100
4622.780000, 17.595400
4623.590000, 17.549700
4624.390000, 17.503500
4625.190000, 17.457200
4626.000000, 17.410700
4626.800000, 17.363600
4627.600000, 17.316600
4628.410000, 17.269400
4629.210000, 17.222100
4630.020000, 17.174800
4630.820000, 17.127900
4631.620000, 17.080900
4632.430000, 17.033700
4633.230000, 16.986300
4634.030000, 16.939000
4634.840000, 16.890200
4635.640000, 16.841400
4636.440000, 16.792000
4637.250000, 16.742000
4638.050000, 16.692000
4638.850000, 16.641500
4639.660000, 16.590800
4640.460000, 16.539900
4641.260000, 16.488100
4642.070000, 16.436300
4642.870000, 16.383200
4643.680000, 16.329500
4644.480000, 16.275700
4645.280000, 16.220600
4646.090000, 16.165400
4646.890000, 16.109800
4647.690000, 16.053700
4648.500000, 15.997700
4649.300000, 15.940900
4650.100000, 15.884000
4650.910000, 15.826900
4651.710000, 15.769300
4652.510000, 15.711800
4653.320000, 15.653600
4654.120000, 15.595200
4654.930000, 15.536500
4655.730000, 15.476000
4656.530000, 15.415600
4657.340000, 15.353600
4658.140000, 15.290300
4658.940000, 15.227000
4659.750000, 15.161600
4660.550000, 15.096100
4661.350000, 15.030100
4662.160000, 14.962900
4662.960000, 14.895700
4663.760000, 14.827300
4664.570000, 14.758500
4665.370000, 14.689500
4666.170000, 14.619300
4666.980000, 14.549100
4667.780000, 14.478200
4668.590000, 14.406800
4669.390000, 14.335400
4670.190000, 14.262100
4671.000000, 14.188500
4671.800000, 14.114100
4672.600000, 14.037200
4673.410000, 13.960400
4674.210000, 13.882000
4675.010000, 13.802500
4675.820000, 13.723100
4676.620000, 13.642000
4677.420000, 13.560900
4678.230000, 13.478900
4679.030000, 13.395600
4679.830000, 13.312200
4680.640000, 13.226500
4681.440000, 13.140200
4682.250000, 13.053600
4683.050000, 12.965400
4683.850000, 12.877300
4684.660000, 12.788700
4685.460000, 12.699600
4686.260000, 12.610600
4687.070000, 12.519700
4687.870000, 12.428700
4688.670000, 12.337000
4689.480000, 12.243200
4690.280000, 12.149500
4691.080000, 12.054300
4691.890000, 11.958300
4692.690000, 11.862300
4693.500000, 11.764000
4694.300000, 11.665600
4695.100000, 11.566400
4695.910000, 11.465400
4696.710000, 11.364300
4697.510000, 11.261900
4698.320000, 11.158700
4699.120000, 11.055600
4699.920000, 10.951300
4700.730000, 10.847100
4701.530000, 10.742400
4702.330000, 10.636900
4703.140000, 10.531400
4703.940000, 10.424600
4704.740000, 10.317100
4705.550000, 10.209600
4706.350000, 10.100100
4707.160000, 9.990630
4707.960000, 9.880580
4708.760000, 9.769580
4709.570000, 9.658630
4710.370000, 9.546430
4711.170000, 9.433820
4711.980000, 9.321090
4712.780000, 9.206360
4713.580000, 9.091670
4714.390000, 8.976290
4715.190000, 8.859910
4715.990000, 8.743570
4716.800000, 8.627120
4717.600000, 8.510650
4718.410000, 8.394260
4719.210000, 8.278480
4720.010000, 8.162730
4720.820000, 8.046920
4721.620000, 7.930970
4722.420000, 7.815070
4723.230000, 7.698430
4724.030000, 7.581530
4724.830000, 7.464650
4725.640000, 7.347100
4726.440000, 7.229590
4727.240000, 7.112200
4728.050000, 6.994990
4728.850000, 6.877820
4729.650000, 6.761510
4730.460000, 6.645630
4731.260000, 6.529780
4732.070000, 6.415440
4732.870000, 6.301130
4733.670000, 6.187210
4734.480000, 6.074060
4735.280000, 5.960960
4736.080000, 5.848550
4736.890000, 5.736580
4737.690000, 5.624650
4738.490000, 5.514090
4739.300000, 5.403680
4740.100000, 5.293660
4740.900000, 5.184850
4741.710000, 5.076080
4742.510000, 4.968050
4743.310000, 4.860680
4744.120000, 4.753350
4744.920000, 4.647620
4745.730000, 4.542230
4746.530000, 4.437300
4747.330000, 4.335190
4748.140000, 4.233100
4748.940000, 4.132510
4749.740000, 4.033890
4750.550000, 3.935290
4751.350000, 3.838370
4752.150000, 3.742120
4752.960000, 3.645920
4753.760000, 3.551720
4754.560000, 3.457540
4755.370000, 3.364260
4756.170000, 3.273000
4756.980000, 3.181780
4757.780000, 3.092660
4758.580000, 3.005040
4759.390000, 2.917450
4760.190000, 2.833300
4760.990000, 2.749680
4761.800000, 2.666760
4762.600000, 2.587640
4763.400000, 2.508540
4764.210000, 2.431430
4765.010000, 2.356980
4765.810000, 2.282550
4766.620000, 2.210870
4767.420000, 2.140360
4768.220000, 2.069880
4769.030000, 2.002510
4769.830000, 1.935240
4770.640000, 1.868860
4771.440000, 1.805140
4772.240000, 1.741440
4773.050000, 1.679990
4773.850000, 1.620670
4774.650000, 1.561360
4775.460000, 1.505530
4776.260000, 1.450680
4777.060000, 1.396030
4777.870000, 1.345120
4778.670000, 1.294220
4779.470000, 1.244430
4780.280000, 1.197130
4781.080000, 1.149840
4781.880000, 1.104550
4782.690000, 1.060830
4783.490000, 1.017120
4784.300000, 0.976338
4785.100000, 0.936228
4785.900000, 0.896359
4786.710000, 0.859573
4787.510000, 0.822799
4788.310000, 0.786928
4789.120000, 0.752967
4789.920000, 0.719017
4790.720000, 0.686655
4791.530000, 0.655505
4792.330000, 0.624366
4793.130000, 0.595596
4793.940000, 0.567381
4794.740000, 0.539313
4795.550000, 0.513638
4796.350000, 0.487971
4797.150000, 0.463086
4797.960000, 0.440055
4798.760000, 0.417032
4799.560000, 0.395781
4800.370000, 0.376086
4801.170000, 0.356397
4801.970000, 0.339027
4802.780000, 0.322363
4803.580000, 0.305704
4804.380000, 0.290687
4805.190000, 0.275674
4805.990000, 0.260886
4806.790000, 0.246836
4807.600000, 0.232791
4808.400000, 0.219468
4809.210000, 0.207000
4810.010000, 0.194537
4810.810000, 0.183612
4811.620000, 0.173408
4812.420000, 0.163207
4813.220000, 0.154948
4814.030000, 0.146898
4814.830000, 0.139007
4815.630000, 0.132232
4816.440000, 0.125459
4817.240000, 0.118752
4818.040000, 0.112168
4818.850000, 0.105586
4819.650000, 0.098991
4820.450000, 0.092386
4821.260000, 0.085783
4822.060000, 0.079735
4822.870000, 0.073858
4823.670000, 0.067982
4824.470000, 0.063190
4825.280000, 0.058426
4826.080000, 0.053807
4826.880000, 0.049827
4827.690000, 0.045848
4828.490000, 0.042159
4829.290000, 0.038927
4830.100000, 0.035697
4830.900000, 0.033058
4831.700000, 0.030835
4832.510000, 0.028612
4833.310000, 0.027024
4834.120000, 0.025608
4834.920000, 0.024192
4835.720000, 0.023105
4836.530000, 0.022024
4837.330000, 0.020958
4838.130000, 0.019964
4838.940000, 0.018970
4839.740000, 0.017983
4840.540000, 0.017007
4841.350000, 0.016031
4842.150000, 0.015147
4842.950000, 0.014335
4843.760000, 0.013523
4844.560000, 0.012999
4845.360000, 0.012576
4846.170000, 0.012154
4846.970000, 0.011801
4847.780000, 0.011454
4848.580000, 0.011067
4849.380000, 0.010337
4850.190000, 0.009608
4850.990000, 0.008829
4851.790000, 0.007927
4852.600000, 0.007025
4853.400000, 0.006255
4854.200000, 0.005642
4855.010000, 0.005029
4855.810000, 0.004586
4856.610000, 0.004243
4857.420000, 0.003899
4858.220000, 0.003645
4859.030000, 0.003412
4859.830000, 0.003179
4860.630000, 0.003142
4861.440000, 0.003112
4862.240000, 0.003101
4863.040000, 0.003223
4863.850000, 0.003345
4864.650000, 0.003371
4865.450000, 0.003168
4866.260000, 0.002965
4867.060000, 0.002399
4867.860000, 0.001396
4868.670000, 0.000393
4869.470000, 0.000001
4870.270000, 0.000001
4871.080000, 0.000001
4871.880000, 0.000001
4872.690000, 0.000001
4873.490000, 0.000001
4874.290000, 0.000001
4875.100000, 0.000001
4875.900000, 0.000001
4876.700000, 0.000001
4877.510000, 0.000001
4878.310000, 0.000001
4879.110000, 0.000001
4879.920000, 0.000001
4880.720000, 0.000485
4881.520000, 0.001860
4882.330000, 0.003234
4883.130000, 0.004616
4883.930000, 0.006007
4884.740000, 0.007397
4885.540000, 0.008086
4886.350000, 0.008365
4887.150000, 0.008644
4887.950000, 0.008224
4888.760000, 0.007589
4889.560000, 0.006955
4890.360000, 0.005898
4891.170000, 0.004793
4891.970000, 0.003686
4892.770000, 0.002503
4893.580000, 0.001321
4894.380000, 0.000304
4895.180000, 0.000193
4895.990000, 0.000081
4896.790000, 0.000001
4897.600000, 0.000001
4898.400000, 0.000001
4899.200000, 0.000001
4900.010000, 0.000001
4900.810000, 0.000001
4901.610000, 0.000001
4902.420000, 0.000001
4903.220000, 0.000001
4904.020000, 0.000001
4904.830000, 0.000001
4905.630000, 0.000001
4906.430000, 0.000001
4907.240000, 0.000001
4908.040000, 0.000001
4908.840000, 0.000001
4909.650000, 0.000001
4910.450000, 0.000001
4911.260000, 0.000001
4912.060000, 0.000001
4912.860000, 0.000001
4913.670000, 0.000001
4914.470000, 0.000001
4915.270000, 0.000001
4916.080000, 0.000001
4916.880000, 0.000001
4917.680000, 0.000039
4918.490000, 0.000179
4919.290000, 0.000319
4920.090000, 0.000903
4920.900000, 0.002238
4921.700000, 0.003572
4922.500000, 0.004447
4923.310000, 0.004792
4924.110000, 0.005138
4924.920000, 0.005055
4925.720000, 0.004631
4926.520000, 0.004208
4927.330000, 0.003703
4928.130000, 0.003153
4928.930000, 0.002603
4929.740000, 0.002141
4930.540000, 0.001713
4931.340000, 0.001284
4932.150000, 0.000979
4932.950000, 0.000702
4933.750000, 0.000424
4934.560000, 0.000459
4935.360000, 0.000531
4936.170000, 0.000603
4936.970000, 0.001156
4937.770000, 0.001723
4938.580000, 0.002306
4939.380000, 0.003222
4940.180000, 0.004139
4940.990000, 0.005044
4941.790000, 0.005868
4942.590000, 0.006693
4943.400000, 0.007402
4944.200000, 0.007619
4945.000000, 0.007835
4945.810000, 0.007864
4946.610000, 0.007341
4947.410000, 0.006819
4948.220000, 0.006127
4949.020000, 0.005073
4949.830000, 0.004019
4950.630000, 0.002931
4951.430000, 0.001788
4952.240000, 0.000645
4953.040000, 0.000001
4953.840000, 0.000001
4954.650000, 0.000001
4955.450000, 0.000001
4956.250000, 0.000001
4957.060000, 0.000001
4957.860000, 0.000001
4958.660000, 0.000001
4959.470000, 0.000001
4960.270000, 0.000001
4961.080000, 0.000001
4961.880000, 0.000001
4962.680000, 0.000001
4963.490000, 0.000001
4964.290000, 0.000001
4965.090000, 0.000001
4965.900000, 0.000001
4966.700000, 0.000001
4967.500000, 0.000382
4968.310000, 0.000908
4969.110000, 0.001433
4969.910000, 0.002154
4970.720000, 0.002936
4971.520000, 0.003717
4972.320000, 0.004511
4973.130000, 0.005308
4973.930000, 0.006105
4974.740000, 0.006422
4975.540000, 0.006642
4976.340000, 0.006862
4977.150000, 0.006699
4977.950000, 0.006475
4978.750000, 0.006250
4979.560000, 0.006468
4980.360000, 0.006742
4981.160000, 0.007016
4981.970000, 0.008113
4982.770000, 0.009290
4983.570000, 0.010466
4984.380000, 0.011521
4985.180000, 0.012566
4985.980000, 0.013611
4986.790000, 0.013352
4987.590000, 0.013025
4988.400000, 0.012699
4989.200000, 0.011278
4990.000000, 0.009820
4990.810000, 0.008362
4991.610000, 0.007047
4992.410000, 0.005735
4993.220000, 0.004424
4994.020000, 0.004175
4994.820000, 0.003938
4995.630000, 0.003701
4996.430000, 0.004248
4997.230000, 0.004798
4998.040000, 0.005348
4998.840000, 0.005495
4999.650000, 0.005642
5000.000000, 0.005788
